Data from unagg-15c-2a-1h_Absorbance__60__00487.txt Node

Date: Mon May 06 09:34:44 CEST 2024
User: Laser008
Spectrometer: MAYP115816
Trigger mode: 0
Integration Time (sec): 2.000000E-1
Scans to average: 10
Electric dark correction enabled: true
Nonlinearity correction enabled: true
Boxcar width: 5
XAxis mode: Wavelengths
Number of Pixels in Spectrum: 2068
>>>>>Begin Spectral Data<<<<<
198.914	-1.91
199.384	-1.76
199.855	-1.62
200.325	-1.49
200.796	-1.41
201.266	-1.36
201.737	-1.29
202.207	-1.23
202.677	-1.17
203.147	-1.13
203.618	-1.1
204.088	-1.08
204.558	-1.05
205.028	-1.04
205.498	-1.04
205.968	-1.04
206.439	-1.03
206.909	-1.03
207.379	-1.03
207.849	-1.03
208.319	-1.02
208.789	-1.02
209.258	-1.02
209.728	-1.01
210.198	-1.01
210.668	-1.01
211.138	-1.01
211.608	-1.01
212.077	-1.01
212.547	-1.01
213.017	-1.01
213.486	-1.01
213.956	-1.01
214.426	-1.01
214.895	-1.01
215.365	-1
215.834	-1
216.304	-1
216.773	-1
217.243	-1
217.712	-0.99
218.181	-0.99
218.651	-0.99
219.12	-0.99
219.589	-0.98
220.058	-0.98
220.528	-0.98
220.997	-0.98
221.466	-0.97
221.935	-0.97
222.404	-0.97
222.873	-0.96
223.342	-0.95
223.812	-0.95
224.281	-0.94
224.749	-0.93
225.218	-0.92
225.687	-0.91
226.156	-0.9
226.625	-0.88
227.094	-0.87
227.563	-0.85
228.031	-0.83
228.5	-0.81
228.969	-0.78
229.438	-0.76
229.906	-0.72
230.375	-0.69
230.844	-0.65
231.312	-0.61
231.781	-0.57
232.249	-0.52
232.718	-0.47
233.186	-0.42
233.655	-0.37
234.123	-0.32
234.591	-0.27
235.06	-0.22
235.528	-0.17
235.996	-0.13
236.465	-0.08
236.933	-0.04
237.401	0.01
237.869	0.05
238.337	0.09
238.805	0.13
239.274	0.17
239.742	0.2
240.21	0.23
240.678	0.26
241.146	0.29
241.614	0.32
242.081	0.34
242.549	0.37
243.017	0.39
243.485	0.41
243.953	0.43
244.421	0.45
244.888	0.47
245.356	0.48
245.824	0.5
246.291	0.51
246.759	0.53
247.227	0.54
247.694	0.55
248.162	0.56
248.629	0.57
249.097	0.58
249.564	0.59
250.032	0.6
250.499	0.61
250.967	0.62
251.434	0.62
251.901	0.63
252.369	0.64
252.836	0.65
253.303	0.65
253.77	0.66
254.237	0.66
254.705	0.67
255.172	0.67
255.639	0.68
256.106	0.68
256.573	0.69
257.04	0.69
257.507	0.69
257.974	0.7
258.441	0.7
258.908	0.7
259.375	0.7
259.841	0.71
260.308	0.71
260.775	0.71
261.242	0.71
261.709	0.71
262.175	0.71
262.642	0.72
263.109	0.72
263.575	0.72
264.042	0.72
264.508	0.72
264.975	0.72
265.441	0.72
265.908	0.72
266.374	0.72
266.841	0.72
267.307	0.72
267.773	0.72
268.24	0.72
268.706	0.72
269.172	0.72
269.639	0.71
270.105	0.71
270.571	0.71
271.037	0.71
271.503	0.71
271.969	0.71
272.435	0.71
272.902	0.71
273.368	0.71
273.834	0.7
274.3	0.7
274.765	0.7
275.231	0.7
275.697	0.7
276.163	0.69
276.629	0.69
277.095	0.69
277.56	0.69
278.026	0.68
278.492	0.68
278.958	0.68
279.423	0.68
279.889	0.67
280.354	0.67
280.82	0.67
281.286	0.67
281.751	0.67
282.217	0.67
282.682	0.67
283.147	0.66
283.613	0.66
284.078	0.66
284.544	0.66
285.009	0.66
285.474	0.66
285.939	0.66
286.405	0.65
286.87	0.65
287.335	0.65
287.8	0.65
288.265	0.65
288.73	0.64
289.195	0.64
289.66	0.64
290.125	0.64
290.59	0.64
291.055	0.64
291.52	0.64
291.985	0.63
292.45	0.63
292.915	0.63
293.38	0.63
293.844	0.63
294.309	0.63
294.774	0.63
295.239	0.62
295.703	0.62
296.168	0.62
296.632	0.62
297.097	0.62
297.562	0.62
298.026	0.62
298.491	0.62
298.955	0.62
299.419	0.61
299.884	0.61
300.348	0.61
300.813	0.61
301.277	0.61
301.741	0.61
302.205	0.61
302.67	0.61
303.134	0.61
303.598	0.61
304.062	0.61
304.526	0.6
304.99	0.6
305.454	0.6
305.919	0.6
306.383	0.6
306.847	0.6
307.31	0.6
307.774	0.6
308.238	0.6
308.702	0.6
309.166	0.6
309.63	0.6
310.094	0.59
310.557	0.59
311.021	0.59
311.485	0.59
311.948	0.59
312.412	0.59
312.876	0.59
313.339	0.59
313.803	0.59
314.266	0.59
314.73	0.59
315.193	0.59
315.657	0.58
316.12	0.58
316.584	0.58
317.047	0.58
317.51	0.58
317.973	0.58
318.437	0.58
318.9	0.58
319.363	0.58
319.826	0.58
320.29	0.57
320.753	0.57
321.216	0.57
321.679	0.57
322.142	0.57
322.605	0.57
323.068	0.57
323.531	0.57
323.994	0.57
324.457	0.56
324.92	0.56
325.382	0.56
325.845	0.56
326.308	0.56
326.771	0.56
327.233	0.56
327.696	0.56
328.159	0.56
328.622	0.56
329.084	0.56
329.547	0.55
330.009	0.55
330.472	0.55
330.934	0.55
331.397	0.55
331.859	0.55
332.322	0.55
332.784	0.55
333.246	0.55
333.709	0.54
334.171	0.54
334.633	0.54
335.096	0.54
335.558	0.54
336.02	0.54
336.482	0.54
336.944	0.54
337.406	0.54
337.868	0.54
338.331	0.53
338.793	0.53
339.255	0.53
339.717	0.53
340.178	0.53
340.64	0.53
341.102	0.53
341.564	0.53
342.026	0.53
342.488	0.53
342.949	0.53
343.411	0.53
343.873	0.53
344.335	0.52
344.796	0.52
345.258	0.52
345.719	0.52
346.181	0.52
346.643	0.52
347.104	0.52
347.566	0.52
348.027	0.52
348.488	0.52
348.95	0.52
349.411	0.51
349.873	0.51
350.334	0.51
350.795	0.51
351.256	0.51
351.718	0.51
352.179	0.51
352.64	0.51
353.101	0.51
353.562	0.51
354.023	0.5
354.484	0.5
354.945	0.5
355.406	0.5
355.867	0.5
356.328	0.5
356.789	0.5
357.25	0.5
357.711	0.49
358.172	0.5
358.633	0.5
359.093	0.5
359.554	0.5
360.015	0.5
360.476	0.5
360.936	0.5
361.397	0.5
361.858	0.5
362.318	0.5
362.779	0.5
363.239	0.5
363.7	0.5
364.16	0.5
364.621	0.5
365.081	0.5
365.541	0.5
366.002	0.5
366.462	0.5
366.922	0.5
367.383	0.5
367.843	0.5
368.303	0.5
368.763	0.5
369.223	0.5
369.684	0.5
370.144	0.5
370.604	0.5
371.064	0.49
371.524	0.49
371.984	0.49
372.444	0.49
372.904	0.49
373.363	0.49
373.823	0.49
374.283	0.49
374.743	0.49
375.203	0.49
375.663	0.49
376.122	0.49
376.582	0.49
377.042	0.49
377.501	0.49
377.961	0.49
378.42	0.49
378.88	0.49
379.34	0.5
379.799	0.49
380.259	0.49
380.718	0.49
381.177	0.49
381.637	0.49
382.096	0.49
382.555	0.49
383.015	0.49
383.474	0.49
383.933	0.49
384.393	0.49
384.852	0.49
385.311	0.49
385.77	0.49
386.229	0.49
386.688	0.49
387.147	0.49
387.606	0.49
388.065	0.49
388.524	0.49
388.983	0.49
389.442	0.49
389.901	0.49
390.36	0.49
390.819	0.49
391.277	0.49
391.736	0.49
392.195	0.49
392.654	0.49
393.112	0.49
393.571	0.49
394.03	0.49
394.488	0.49
394.947	0.49
395.405	0.49
395.864	0.49
396.322	0.49
396.781	0.49
397.239	0.49
397.698	0.49
398.156	0.49
398.614	0.49
399.073	0.49
399.531	0.49
399.989	0.49
400.447	0.49
400.905	0.49
401.364	0.49
401.822	0.49
402.28	0.48
402.738	0.48
403.196	0.48
403.654	0.48
404.112	0.48
404.57	0.48
405.028	0.48
405.486	0.48
405.944	0.48
406.402	0.48
406.859	0.48
407.317	0.48
407.775	0.48
408.233	0.48
408.691	0.48
409.148	0.48
409.606	0.48
410.064	0.48
410.521	0.48
410.979	0.48
411.436	0.48
411.894	0.47
412.351	0.47
412.809	0.47
413.266	0.47
413.724	0.47
414.181	0.47
414.638	0.47
415.096	0.47
415.553	0.47
416.01	0.47
416.467	0.47
416.925	0.47
417.382	0.47
417.839	0.47
418.296	0.47
418.753	0.47
419.21	0.47
419.667	0.47
420.124	0.47
420.581	0.47
421.038	0.47
421.495	0.47
421.952	0.47
422.409	0.47
422.866	0.47
423.322	0.47
423.779	0.47
424.236	0.47
424.693	0.47
425.149	0.47
425.606	0.47
426.063	0.47
426.519	0.47
426.976	0.47
427.433	0.47
427.889	0.47
428.346	0.47
428.802	0.47
429.258	0.47
429.715	0.47
430.171	0.47
430.628	0.47
431.084	0.47
431.54	0.47
431.997	0.47
432.453	0.47
432.909	0.46
433.365	0.46
433.821	0.46
434.277	0.46
434.734	0.46
435.19	0.46
435.646	0.46
436.102	0.46
436.558	0.46
437.014	0.46
437.47	0.46
437.925	0.46
438.381	0.46
438.837	0.46
439.293	0.46
439.749	0.46
440.205	0.46
440.66	0.46
441.116	0.46
441.572	0.46
442.027	0.46
442.483	0.46
442.939	0.46
443.394	0.46
443.85	0.46
444.305	0.46
444.761	0.46
445.216	0.46
445.672	0.46
446.127	0.46
446.582	0.46
447.038	0.46
447.493	0.46
447.948	0.46
448.403	0.46
448.859	0.45
449.314	0.45
449.769	0.45
450.224	0.45
450.679	0.45
451.134	0.45
451.589	0.45
452.044	0.45
452.499	0.45
452.954	0.45
453.409	0.45
453.864	0.45
454.319	0.45
454.774	0.45
455.229	0.45
455.684	0.44
456.138	0.44
456.593	0.44
457.048	0.44
457.503	0.44
457.957	0.44
458.412	0.44
458.866	0.44
459.321	0.44
459.776	0.44
460.23	0.44
460.685	0.44
461.139	0.44
461.593	0.44
462.048	0.44
462.502	0.44
462.957	0.44
463.411	0.44
463.865	0.44
464.319	0.44
464.774	0.44
465.228	0.44
465.682	0.44
466.136	0.44
466.59	0.44
467.044	0.44
467.499	0.44
467.953	0.44
468.407	0.43
468.861	0.43
469.315	0.43
469.768	0.43
470.222	0.43
470.676	0.43
471.13	0.43
471.584	0.43
472.038	0.43
472.491	0.43
472.945	0.43
473.399	0.43
473.852	0.43
474.306	0.43
474.76	0.43
475.213	0.43
475.667	0.43
476.12	0.43
476.574	0.44
477.027	0.44
477.481	0.44
477.934	0.44
478.388	0.44
478.841	0.44
479.294	0.44
479.748	0.44
480.201	0.44
480.654	0.44
481.107	0.44
481.561	0.44
482.014	0.44
482.467	0.44
482.92	0.45
483.373	0.45
483.826	0.45
484.279	0.46
484.732	0.46
485.185	0.46
485.638	0.46
486.091	0.46
486.544	0.46
486.997	0.46
487.449	0.46
487.902	0.46
488.355	0.46
488.808	0.46
489.26	0.46
489.713	0.46
490.166	0.46
490.618	0.46
491.071	0.46
491.523	0.46
491.976	0.46
492.429	0.46
492.881	0.46
493.333	0.46
493.786	0.46
494.238	0.47
494.691	0.47
495.143	0.47
495.595	0.47
496.048	0.47
496.5	0.47
496.952	0.48
497.404	0.48
497.856	0.48
498.309	0.48
498.761	0.48
499.213	0.48
499.665	0.48
500.117	0.48
500.569	0.49
501.021	0.49
501.473	0.49
501.925	0.49
502.377	0.49
502.828	0.5
503.28	0.5
503.732	0.5
504.184	0.5
504.636	0.5
505.087	0.5
505.539	0.5
505.991	0.51
506.442	0.51
506.894	0.51
507.345	0.51
507.797	0.51
508.249	0.51
508.7	0.51
509.151	0.51
509.603	0.51
510.054	0.51
510.506	0.52
510.957	0.52
511.408	0.52
511.86	0.52
512.311	0.52
512.762	0.52
513.213	0.52
513.665	0.52
514.116	0.52
514.567	0.52
515.018	0.52
515.469	0.52
515.92	0.52
516.371	0.52
516.822	0.52
517.273	0.52
517.724	0.52
518.175	0.52
518.626	0.52
519.076	0.52
519.527	0.52
519.978	0.51
520.429	0.51
520.88	0.51
521.33	0.5
521.781	0.5
522.232	0.5
522.682	0.5
523.133	0.5
523.583	0.51
524.034	0.51
524.484	0.51
524.935	0.52
525.385	0.53
525.836	0.53
526.286	0.54
526.736	0.54
527.187	0.55
527.637	0.55
528.087	0.55
528.538	0.56
528.988	0.56
529.438	0.56
529.888	0.56
530.338	0.56
530.788	0.57
531.238	0.57
531.688	0.57
532.139	0.57
532.589	0.57
533.038	0.57
533.488	0.58
533.938	0.58
534.388	0.58
534.838	0.58
535.288	0.58
535.738	0.58
536.187	0.59
536.637	0.59
537.087	0.59
537.537	0.59
537.986	0.59
538.436	0.59
538.885	0.59
539.335	0.59
539.785	0.59
540.234	0.59
540.684	0.59
541.133	0.59
541.582	0.59
542.032	0.59
542.481	0.59
542.931	0.59
543.38	0.6
543.829	0.6
544.278	0.6
544.728	0.6
545.177	0.6
545.626	0.6
546.075	0.61
546.524	0.61
546.973	0.61
547.422	0.61
547.871	0.61
548.32	0.6
548.769	0.6
549.218	0.6
549.667	0.6
550.116	0.6
550.565	0.6
551.014	0.6
551.463	0.6
551.911	0.6
552.36	0.61
552.809	0.61
553.258	0.61
553.706	0.61
554.155	0.61
554.603	0.61
555.052	0.61
555.501	0.61
555.949	0.61
556.398	0.6
556.846	0.6
557.294	0.6
557.743	0.6
558.191	0.6
558.64	0.6
559.088	0.6
559.536	0.6
559.985	0.6
560.433	0.6
560.881	0.61
561.329	0.61
561.777	0.61
562.225	0.61
562.674	0.61
563.122	0.61
563.57	0.61
564.018	0.61
564.466	0.61
564.914	0.61
565.362	0.61
565.809	0.61
566.257	0.61
566.705	0.61
567.153	0.61
567.601	0.61
568.048	0.62
568.496	0.62
568.944	0.63
569.392	0.63
569.839	0.64
570.287	0.64
570.734	0.65
571.182	0.65
571.63	0.65
572.077	0.65
572.525	0.66
572.972	0.66
573.419	0.66
573.867	0.66
574.314	0.66
574.761	0.66
575.209	0.66
575.656	0.66
576.103	0.66
576.551	0.66
576.998	0.66
577.445	0.66
577.892	0.66
578.339	0.66
578.786	0.66
579.233	0.66
579.68	0.66
580.127	0.66
580.574	0.66
581.021	0.66
581.468	0.65
581.915	0.65
582.362	0.65
582.809	0.65
583.255	0.65
583.702	0.65
584.149	0.64
584.596	0.64
585.042	0.63
585.489	0.63
585.936	0.63
586.382	0.63
586.829	0.63
587.275	0.63
587.722	0.62
588.168	0.62
588.615	0.61
589.061	0.61
589.508	0.6
589.954	0.6
590.4	0.6
590.847	0.6
591.293	0.6
591.739	0.59
592.185	0.59
592.632	0.59
593.078	0.59
593.524	0.59
593.97	0.59
594.416	0.59
594.862	0.58
595.308	0.58
595.754	0.58
596.2	0.57
596.646	0.57
597.092	0.57
597.538	0.57
597.984	0.57
598.43	0.57
598.876	0.57
599.321	0.57
599.767	0.57
600.213	0.57
600.659	0.56
601.104	0.56
601.55	0.56
601.995	0.56
602.441	0.55
602.887	0.55
603.332	0.55
603.778	0.54
604.223	0.54
604.668	0.54
605.114	0.54
605.559	0.54
606.005	0.54
606.45	0.54
606.895	0.54
607.341	0.54
607.786	0.53
608.231	0.53
608.676	0.53
609.121	0.52
609.566	0.52
610.012	0.52
610.457	0.51
610.902	0.51
611.347	0.51
611.792	0.51
612.237	0.51
612.682	0.51
613.127	0.51
613.571	0.51
614.016	0.5
614.461	0.5
614.906	0.5
615.351	0.5
615.795	0.49
616.24	0.49
616.685	0.49
617.129	0.49
617.574	0.48
618.019	0.48
618.463	0.48
618.908	0.47
619.352	0.47
619.797	0.47
620.241	0.47
620.686	0.47
621.13	0.47
621.574	0.47
622.019	0.47
622.463	0.47
622.907	0.47
623.352	0.46
623.796	0.46
624.24	0.46
624.684	0.46
625.128	0.46
625.572	0.46
626.016	0.46
626.461	0.46
626.905	0.46
627.349	0.46
627.793	0.46
628.236	0.46
628.68	0.46
629.124	0.46
629.568	0.45
630.012	0.45
630.456	0.45
630.9	0.45
631.343	0.45
631.787	0.45
632.231	0.45
632.674	0.45
633.118	0.45
633.562	0.45
634.005	0.45
634.449	0.45
634.892	0.45
635.336	0.45
635.779	0.45
636.223	0.45
636.666	0.45
637.109	0.45
637.553	0.45
637.996	0.45
638.439	0.45
638.883	0.46
639.326	0.45
639.769	0.46
640.212	0.46
640.655	0.46
641.099	0.46
641.542	0.46
641.985	0.46
642.428	0.46
642.871	0.47
643.314	0.47
643.757	0.47
644.2	0.47
644.643	0.47
645.085	0.47
645.528	0.47
645.971	0.48
646.414	0.48
646.857	0.48
647.299	0.49
647.742	0.49
648.185	0.49
648.627	0.5
649.07	0.5
649.513	0.5
649.955	0.51
650.398	0.51
650.84	0.51
651.283	0.51
651.725	0.52
652.168	0.52
652.61	0.52
653.052	0.53
653.495	0.53
653.937	0.46
654.379	0.43
654.821	0.44
655.264	0.44
655.706	0.45
656.148	0.45
656.59	0.45
657.032	0.45
657.474	0.46
657.916	0.45
658.358	0.45
658.8	0.52
659.242	0.58
659.684	0.57
660.126	0.57
660.568	0.58
661.01	0.58
661.452	0.58
661.894	0.58
662.335	0.59
662.777	0.59
663.219	0.6
663.661	0.6
664.102	0.6
664.544	0.61
664.985	0.61
665.427	0.61
665.869	0.62
666.31	0.62
666.752	0.62
667.193	0.63
667.634	0.63
668.076	0.63
668.517	0.64
668.959	0.64
669.4	0.64
669.841	0.65
670.282	0.65
670.724	0.66
671.165	0.66
671.606	0.66
672.047	0.67
672.488	0.67
672.929	0.67
673.37	0.67
673.811	0.68
674.252	0.68
674.693	0.68
675.134	0.68
675.575	0.68
676.016	0.68
676.457	0.68
676.898	0.69
677.339	0.69
677.78	0.69
678.22	0.69
678.661	0.7
679.102	0.7
679.542	0.7
679.983	0.7
680.424	0.7
680.864	0.7
681.305	0.7
681.745	0.71
682.186	0.71
682.626	0.71
683.067	0.71
683.507	0.72
683.948	0.72
684.388	0.72
684.828	0.72
685.269	0.72
685.709	0.73
686.149	0.73
686.589	0.73
687.029	0.73
687.47	0.73
687.91	0.73
688.35	0.73
688.79	0.73
689.23	0.73
689.67	0.73
690.11	0.73
690.55	0.73
690.99	0.73
691.43	0.74
691.87	0.74
692.31	0.74
692.749	0.74
693.189	0.74
693.629	0.74
694.069	0.74
694.508	0.74
694.948	0.74
695.388	0.74
695.827	0.74
696.267	0.74
696.706	0.74
697.146	0.74
697.586	0.74
698.025	0.74
698.464	0.74
698.904	0.74
699.343	0.74
699.783	0.73
700.222	0.73
700.661	0.73
701.101	0.73
701.54	0.73
701.979	0.73
702.418	0.73
702.857	0.73
703.297	0.73
703.736	0.72
704.175	0.72
704.614	0.72
705.053	0.72
705.492	0.72
705.931	0.72
706.37	0.72
706.809	0.72
707.248	0.72
707.687	0.72
708.125	0.72
708.564	0.72
709.003	0.72
709.442	0.71
709.88	0.71
710.319	0.71
710.758	0.71
711.196	0.7
711.635	0.7
712.074	0.7
712.512	0.7
712.951	0.7
713.389	0.69
713.828	0.69
714.266	0.69
714.705	0.69
715.143	0.68
715.581	0.68
716.02	0.68
716.458	0.68
716.896	0.67
717.334	0.67
717.773	0.67
718.211	0.67
718.649	0.66
719.087	0.66
719.525	0.66
719.963	0.66
720.401	0.66
720.839	0.65
721.277	0.65
721.715	0.65
722.153	0.64
722.591	0.64
723.029	0.64
723.467	0.64
723.905	0.64
724.342	0.63
724.78	0.63
725.218	0.63
725.656	0.62
726.093	0.62
726.531	0.62
726.969	0.62
727.406	0.62
727.844	0.62
728.281	0.61
728.719	0.61
729.156	0.61
729.594	0.61
730.031	0.61
730.469	0.61
730.906	0.6
731.343	0.6
731.781	0.6
732.218	0.6
732.655	0.6
733.092	0.6
733.53	0.59
733.967	0.59
734.404	0.59
734.841	0.59
735.278	0.58
735.715	0.58
736.152	0.58
736.589	0.57
737.026	0.57
737.463	0.57
737.9	0.57
738.337	0.56
738.774	0.56
739.211	0.55
739.647	0.55
740.084	0.55
740.521	0.55
740.958	0.54
741.394	0.54
741.831	0.53
742.268	0.53
742.704	0.52
743.141	0.52
743.577	0.51
744.014	0.51
744.45	0.5
744.887	0.5
745.323	0.5
745.76	0.49
746.196	0.49
746.632	0.49
747.069	0.49
747.505	0.49
747.941	0.48
748.378	0.48
748.814	0.48
749.25	0.48
749.686	0.48
750.122	0.48
750.558	0.48
750.994	0.48
751.43	0.48
751.866	0.48
752.302	0.47
752.738	0.47
753.174	0.47
753.61	0.47
754.046	0.47
754.482	0.47
754.918	0.47
755.354	0.47
755.789	0.47
756.225	0.46
756.661	0.46
757.096	0.46
757.532	0.46
757.968	0.46
758.403	0.45
758.839	0.45
759.274	0.45
759.71	0.44
760.145	0.44
760.581	0.43
761.016	0.43
761.452	0.42
761.887	0.42
762.322	0.42
762.758	0.41
763.193	0.41
763.628	0.4
764.063	0.4
764.499	0.39
764.934	0.39
765.369	0.39
765.804	0.38
766.239	0.38
766.674	0.37
767.109	0.37
767.544	0.36
767.979	0.36
768.414	0.35
768.849	0.35
769.284	0.34
769.719	0.34
770.154	0.33
770.588	0.33
771.023	0.32
771.458	0.32
771.893	0.31
772.327	0.3
772.762	0.3
773.197	0.29
773.631	0.28
774.066	0.28
774.5	0.27
774.935	0.26
775.369	0.25
775.804	0.25
776.238	0.24
776.673	0.23
777.107	0.22
777.541	0.22
777.976	0.21
778.41	0.2
778.844	0.19
779.279	0.18
779.713	0.18
780.147	0.17
780.581	0.16
781.015	0.15
781.449	0.13
781.883	0.12
782.317	0.1
782.751	0.09
783.185	0.07
783.619	0.06
784.053	0.04
784.487	0.02
784.921	0.01
785.355	-0.01
785.789	-0.02
786.223	-0.03
786.656	-0.03
787.09	-0.04
787.524	-0.04
787.957	-0.05
788.391	-0.05
788.825	-0.06
789.258	-0.06
789.692	-0.06
790.125	-0.05
790.559	-0.06
790.992	-0.06
791.426	-0.06
791.859	-0.06
792.293	-0.05
792.726	-0.04
793.159	-0.04
793.593	-0.04
794.026	-0.04
794.459	-0.04
794.892	-0.05
795.326	-0.05
795.759	-0.05
796.192	-0.05
796.625	-0.06
797.058	-0.06
797.491	-0.07
797.924	-0.08
798.357	-0.08
798.79	-0.08
799.223	-0.08
799.656	-0.08
800.089	-0.08
800.522	-0.08
800.955	-0.09
801.387	-0.09
801.82	-0.09
802.253	-0.09
802.686	-0.09
803.118	-0.09
803.551	-0.09
803.984	-0.08
804.416	-0.08
804.849	-0.07
805.281	-0.07
805.714	-0.07
806.146	-0.07
806.579	-0.07
807.011	-0.07
807.444	-0.07
807.876	-0.07
808.308	-0.07
808.741	-0.07
809.173	-0.07
809.605	-0.08
810.037	-0.08
810.47	-0.08
810.902	-0.08
811.334	-0.08
811.766	-0.08
812.198	-0.08
812.63	-0.08
813.062	-0.08
813.494	-0.08
813.926	-0.08
814.358	-0.08
814.79	-0.07
815.222	-0.07
815.654	-0.07
816.086	-0.07
816.518	-0.08
816.949	-0.08
817.381	-0.08
817.813	-0.08
818.245	-0.07
818.676	-0.07
819.108	-0.06
819.54	-0.05
819.971	-0.05
820.403	-0.04
820.834	-0.03
821.266	-0.01
821.697	0
822.129	0.02
822.56	0.03
822.991	0.05
823.423	0.06
823.854	0.07
824.286	0.08
824.717	0.09
825.148	0.11
825.579	0.12
826.01	0.13
826.442	0.13
826.873	0.14
827.304	0.15
827.735	0.16
828.166	0.16
828.597	0.17
829.028	0.17
829.459	0.18
829.89	0.18
830.321	0.18
830.752	0.19
831.183	0.19
831.613	0.2
832.044	0.2
832.475	0.2
832.906	0.21
833.336	0.21
833.767	0.21
834.198	0.21
834.628	0.22
835.059	0.22
835.49	0.22
835.92	0.22
836.351	0.22
836.781	0.23
837.212	0.23
837.642	0.23
838.072	0.23
838.503	0.23
838.933	0.23
839.364	0.23
839.794	0.23
840.224	0.23
840.654	0.23
841.085	0.23
841.515	0.23
841.945	0.23
842.375	0.23
842.805	0.23
843.235	0.23
843.665	0.23
844.095	0.23
844.525	0.23
844.955	0.23
845.385	0.23
845.815	0.23
846.245	0.23
846.675	0.23
847.105	0.23
847.534	0.23
847.964	0.23
848.394	0.23
848.824	0.23
849.253	0.23
849.683	0.23
850.112	0.23
850.542	0.23
850.972	0.23
851.401	0.23
851.831	0.23
852.26	0.23
852.69	0.23
853.119	0.23
853.548	0.23
853.978	0.23
854.407	0.23
854.836	0.23
855.266	0.23
855.695	0.23
856.124	0.23
856.553	0.23
856.983	0.23
857.412	0.23
857.841	0.22
858.27	0.22
858.699	0.22
859.128	0.22
859.557	0.22
859.986	0.22
860.415	0.22
860.844	0.22
861.273	0.22
861.702	0.22
862.13	0.22
862.559	0.22
862.988	0.22
863.417	0.22
863.845	0.22
864.274	0.21
864.703	0.21
865.131	0.21
865.56	0.21
865.989	0.21
866.417	0.21
866.846	0.21
867.274	0.21
867.703	0.21
868.131	0.21
868.559	0.21
868.988	0.21
869.416	0.21
869.844	0.21
870.273	0.21
870.701	0.21
871.129	0.21
871.557	0.21
871.986	0.21
872.414	0.21
872.842	0.21
873.27	0.21
873.698	0.21
874.126	0.21
874.554	0.2
874.982	0.2
875.41	0.2
875.838	0.2
876.266	0.2
876.694	0.2
877.122	0.2
877.549	0.2
877.977	0.2
878.405	0.2
878.833	0.2
879.26	0.2
879.688	0.2
880.116	0.2
880.543	0.2
880.971	0.2
881.399	0.2
881.826	0.2
882.254	0.2
882.681	0.2
883.109	0.2
883.536	0.2
883.963	0.2
884.391	0.2
884.818	0.2
885.245	0.2
885.673	0.2
886.1	0.2
886.527	0.2
886.954	0.2
887.381	0.2
887.809	0.2
888.236	0.2
888.663	0.2
889.09	0.2
889.517	0.2
889.944	0.2
890.371	0.2
890.798	0.2
891.225	0.2
891.652	0.2
892.078	0.19
892.505	0.19
892.932	0.19
893.359	0.19
893.786	0.19
894.212	0.19
894.639	0.19
895.066	0.19
895.492	0.19
895.919	0.19
896.346	0.19
896.772	0.19
897.199	0.19
897.625	0.19
898.052	0.19
898.478	0.19
898.904	0.19
899.331	0.19
899.757	0.19
900.183	0.19
900.61	0.19
901.036	0.19
901.462	0.19
901.888	0.19
902.315	0.19
902.741	0.19
903.167	0.19
903.593	0.19
904.019	0.19
904.445	0.19
904.871	0.19
905.297	0.19
905.723	0.19
906.149	0.18
906.575	0.18
907.001	0.18
907.427	0.18
907.852	0.18
908.278	0.18
908.704	0.18
909.13	0.18
909.555	0.18
909.981	0.18
910.407	0.18
910.832	0.18
911.258	0.18
911.684	0.18
912.109	0.18
912.535	0.18
912.96	0.18
913.386	0.18
913.811	0.18
914.236	0.18
914.662	0.18
915.087	0.18
915.512	0.18
915.938	0.18
916.363	0.18
916.788	0.18
917.213	0.18
917.639	0.18
918.064	0.18
918.489	0.18
918.914	0.18
919.339	0.18
919.764	0.18
920.189	0.18
920.614	0.18
921.039	0.18
921.464	0.18
921.889	0.18
922.314	0.18
922.738	0.18
923.163	0.18
923.588	0.17
924.013	0.17
924.437	0.17
924.862	0.17
925.287	0.17
925.711	0.17
926.136	0.17
926.561	0.17
926.985	0.17
927.41	0.17
927.834	0.17
928.259	0.17
928.683	0.17
929.108	0.17
929.532	0.17
929.956	0.17
930.381	0.17
930.805	0.16
931.229	0.16
931.653	0.16
932.078	0.16
932.502	0.16
932.926	0.16
933.35	0.16
933.774	0.15
934.198	0.15
934.622	0.15
935.046	0.15
935.47	0.15
935.894	0.15
936.318	0.15
936.742	0.15
937.166	0.15
937.59	0.15
938.014	0.15
938.437	0.16
938.861	0.16
939.285	0.16
939.709	0.16
940.132	0.16
940.556	0.16
940.98	0.16
941.403	0.16
941.827	0.16
942.25	0.16
942.674	0.16
943.097	0.16
943.521	0.16
943.944	0.16
944.368	0.16
944.791	0.16
945.214	0.16
945.638	0.16
946.061	0.15
946.484	0.15
946.907	0.15
947.331	0.15
947.754	0.15
948.177	0.15
948.6	0.15
949.023	0.15
949.446	0.15
949.869	0.15
950.292	0.15
950.715	0.15
951.138	0.15
951.561	0.14
951.984	0.14
952.407	0.14
952.83	0.14
953.252	0.14
953.675	0.14
954.098	0.14
954.521	0.14
954.943	0.14
955.366	0.14
955.789	0.14
956.211	0.14
956.634	0.14
957.056	0.14
957.479	0.14
957.902	0.14
958.324	0.14
958.746	0.14
959.169	0.14
959.591	0.14
960.014	0.14
960.436	0.14
960.858	0.14
961.281	0.14
961.703	0.14
962.125	0.14
962.547	0.14
962.969	0.14
963.391	0.14
963.814	0.14
964.236	0.14
964.658	0.15
965.08	0.15
965.502	0.15
965.924	0.15
966.346	0.15
966.768	0.15
967.189	0.15
967.611	0.14
968.033	0.14
968.455	0.14
968.877	0.14
969.298	0.14
969.72	0.14
970.142	0.14
970.563	0.14
970.985	0.14
971.407	0.14
971.828	0.14
972.25	0.14
972.671	0.14
973.093	0.14
973.514	0.14
973.936	0.14
974.357	0.14
974.778	0.14
975.2	0.14
975.621	0.14
976.042	0.14
976.464	0.14
976.885	0.14
977.306	0.14
977.727	0.14
978.148	0.14
978.57	0.14
978.991	0.14
979.412	0.14
979.833	0.13
980.254	0.13
980.675	0.13
981.096	0.13
981.517	0.13
981.937	0.13
982.358	0.13
982.779	0.13
983.2	0.13
983.621	0.13
984.042	0.13
984.462	0.13
984.883	0.13
985.304	0.13
985.724	0.13
986.145	0.13
986.565	0.13
986.986	0.13
987.407	0.13
987.827	0.13
988.248	0.13
988.668	0.13
989.088	0.13
989.509	0.13
989.929	0.13
990.35	0.13
990.77	0.13
991.19	0.13
991.61	0.13
992.031	0.13
992.451	0.12
992.871	0.12
993.291	0.12
993.711	0.12
994.131	0.12
994.551	0.12
994.971	0.12
995.391	0.12
995.811	0.12
996.231	0.12
996.651	0.12
997.071	0.12
997.491	0.12
997.911	0.12
998.331	0.12
998.75	0.12
999.17	0.12
999.59	0.12
1000.009	0.12
1000.429	0.12
1000.849	0.12
1001.268	0.12
1001.688	0.12
1002.107	0.12
1002.527	0.12
1002.946	0.12
1003.366	0.12
1003.785	0.12
1004.205	0.12
1004.624	0.12
1005.044	0.12
1005.463	0.12
1005.882	0.12
1006.301	0.12
1006.721	0.12
1007.14	0.12
1007.559	0.12
1007.978	0.11
1008.397	0.11
1008.816	0.11
1009.235	0.11
1009.655	0.11
1010.074	0.11
1010.492	0.11
1010.911	0.11
1011.33	0.11
1011.749	0.11
1012.168	0.11
1012.587	0.11
1013.006	0.11
1013.425	0.11
1013.843	0.11
1014.262	0.11
1014.681	0.11
1015.099	0.11
1015.518	0.11
1015.937	0.11
1016.355	0.11
1016.774	0.11
1017.192	0.11
1017.611	0.11
1018.029	0.11
1018.448	0.11
1018.866	0.11
1019.285	0.11
1019.703	0.11
1020.121	0.11
1020.54	0.11
1020.958	0.11
1021.376	0.11
1021.794	0.11
1022.213	0.11
1022.631	0.11
1023.049	0.11
1023.467	0.11
1023.885	0.11
1024.303	0.11
1024.721	0.11
1025.139	0.11
1025.557	0.11
1025.975	0.12
1026.393	0.12
1026.811	0.12
1027.229	0.12
1027.647	0.12
1028.065	0.12
1028.482	0.12
1028.9	0.12
1029.318	0.12
1029.735	0.12
1030.153	0.12
1030.571	0.12
1030.988	0.12
1031.406	0.12
1031.823	0.12
1032.241	0.13
1032.659	0.13
1033.076	0.12
1033.493	0.12
1033.911	0.12
1034.328	0.12
1034.746	0.12
1035.163	0.12
1035.58	0.12
1035.997	0.12
1036.415	0.12
1036.832	0.12
1037.249	0.12
1037.666	0.11
1038.083	0.11
1038.501	0.11
1038.918	0.11
1039.335	0.12
1039.752	0.12
1040.169	0.12
1040.586	0.12
1041.003	0.12
1041.419	0.12
1041.836	0.12
1042.253	0.12
1042.67	0.12
1043.087	0.12
1043.504	0.12
1043.92	0.12
1044.337	0.12
1044.754	0.11
1045.17	0.11
1045.587	0.11
1046.004	0.11
1046.42	0.11
1046.837	0.11
1047.253	0.11
1047.67	0.11
1048.086	0.11
1048.503	0.11
1048.919	0.11
1049.335	0.11
1049.752	0.11
1050.168	0.11
1050.584	0.12
1051.001	0.12
1051.417	0.12
1051.833	0.12
1052.249	0.12
1052.665	0.12
1053.081	0.12
1053.497	0.12
1053.914	0.12
1054.33	0.12
1054.746	0.12
1055.162	0.12
1055.578	0.12
1055.993	0.12
1056.409	0.12
1056.825	0.12
1057.241	0.12
1057.657	0.12
1058.073	0.12
1058.488	0.12
1058.904	0.12
1059.32	0.12
1059.736	0.12
1060.151	0.12
1060.567	0.12
1060.982	0.12
1061.398	0.12
1061.813	0.12
1062.229	0.12
1062.644	0.12
1063.06	0.12
1063.475	0.12
1063.891	0.12
1064.306	0.12
1064.721	0.12
1065.137	0.12
1065.552	0.12
1065.967	0.12
1066.382	0.12
1066.798	0.12
1067.213	0.12
1067.628	0.12
1068.043	0.12
1068.458	0.12
1068.873	0.12
1069.288	0.12
1069.703	0.12
1070.118	0.12
1070.533	0.12
1070.948	0.12
1071.363	0.12
1071.778	0.12
1072.193	0.12
1072.607	0.13
1073.022	0.13
1073.437	0.13
1073.852	0.13
1074.266	0.13
1074.681	0.13
1075.096	0.13
1075.51	0.13
1075.925	0.13
1076.339	0.13
1076.754	0.13
1077.168	0.13
1077.583	0.13
1077.997	0.13
1078.412	0.13
1078.826	0.13
1079.24	0.13
1079.655	0.13
1080.069	0.13
1080.483	0.14
1080.897	0.14
1081.312	0.14
1081.726	0.14
1082.14	0.14
1082.554	0.14
1082.968	0.14
1083.382	0.14
1083.796	0.15
1084.21	0.15
1084.624	0.15
1085.038	0.15
1085.452	0.16
1085.866	0.16
1086.28	0.16
1086.694	0.16
1087.108	0.16
1087.521	0.16
1087.935	0.17
1088.349	0.17
1088.763	0.17
1089.176	0.18
1089.59	0.18
1090.004	0.18
1090.417	0.19
1090.831	0.19
1091.244	0.2
1091.658	0.2
1092.071	0.21
1092.485	0.21
1092.898	0.22
1093.312	0.22
1093.725	0.23
1094.138	0.24
1094.552	0.24
1094.965	0.25
1095.378	0.26
1095.791	0.27
1096.205	0.28
1096.618	0.29
1097.031	0.3
1097.444	0.31
1097.857	0.32
1098.27	0.34
1098.683	0.35
1099.096	0.37
1099.509	0.38
1099.922	0.4
1100.335	0.42
1100.748	0.44
1101.161	0.47
1101.574	0.5
1101.986	0.53
1102.399	0.57
1102.812	0.62
1103.225	0.68
1103.637	0.74
1104.05	0.82
1104.463	0.93
1104.875	1.08
1105.288	1.3
1105.7	1.84
1106.113	-0
1106.525	-0
1106.938	-0
1107.35	-0
1107.763	-0
1108.175	-0
1108.588	-0
1109	-0
1109.412	-0
1109.824	-0
1110.237	-0
1110.649	-0
1111.061	-0
