Data from 2024-02-06-100ns-20nr-25nacl-100h2o-7bp2-1_8a808-40to10hyt-0_5cpm_Absorbance__3__00392.txt Node

Date: Tue Feb 06 15:25:50 CET 2024
User: Laser008
Spectrometer: MAYP115816
Trigger mode: 0
Integration Time (sec): 2.000000E-1
Scans to average: 10
Electric dark correction enabled: true
Nonlinearity correction enabled: true
Boxcar width: 5
XAxis mode: Wavelengths
Number of Pixels in Spectrum: 2068
>>>>>Begin Spectral Data<<<<<
198.914	-0.27
199.384	-0.24
199.855	-0.18
200.325	-0.15
200.796	-0.12
201.266	-0.11
201.737	-0.1
202.207	-0.09
202.677	-0.09
203.147	-0.08
203.618	-0.07
204.088	-0.06
204.558	-0.05
205.028	-0.05
205.498	-0.05
205.968	-0.05
206.439	-0.05
206.909	-0.05
207.379	-0.05
207.849	-0.05
208.319	-0.05
208.789	-0.05
209.258	-0.05
209.728	-0.05
210.198	-0.05
210.668	-0.06
211.138	-0.06
211.608	-0.05
212.077	-0.06
212.547	-0.06
213.017	-0.06
213.486	-0.06
213.956	-0.05
214.426	-0.05
214.895	-0.05
215.365	-0.05
215.834	-0.05
216.304	-0.05
216.773	-0.04
217.243	-0.04
217.712	-0.04
218.181	-0.04
218.651	-0.04
219.12	-0.03
219.589	-0.03
220.058	-0.03
220.528	-0.03
220.997	-0.03
221.466	-0.02
221.935	-0.02
222.404	-0.02
222.873	-0.01
223.342	-0.01
223.812	-0.01
224.281	-0
224.749	0.01
225.218	0.01
225.687	0.02
226.156	0.03
226.625	0.04
227.094	0.05
227.563	0.06
228.031	0.07
228.5	0.08
228.969	0.1
229.438	0.12
229.906	0.14
230.375	0.16
230.844	0.18
231.312	0.2
231.781	0.22
232.249	0.25
232.718	0.27
233.186	0.3
233.655	0.32
234.123	0.34
234.591	0.36
235.06	0.38
235.528	0.39
235.996	0.41
236.465	0.42
236.933	0.44
237.401	0.45
237.869	0.46
238.337	0.46
238.805	0.47
239.274	0.48
239.742	0.49
240.21	0.49
240.678	0.5
241.146	0.5
241.614	0.5
242.081	0.51
242.549	0.51
243.017	0.51
243.485	0.52
243.953	0.52
244.421	0.52
244.888	0.52
245.356	0.53
245.824	0.53
246.291	0.53
246.759	0.53
247.227	0.54
247.694	0.54
248.162	0.54
248.629	0.54
249.097	0.54
249.564	0.54
250.032	0.55
250.499	0.55
250.967	0.55
251.434	0.55
251.901	0.55
252.369	0.55
252.836	0.56
253.303	0.56
253.77	0.56
254.237	0.56
254.705	0.56
255.172	0.56
255.639	0.56
256.106	0.56
256.573	0.57
257.04	0.57
257.507	0.57
257.974	0.57
258.441	0.57
258.908	0.57
259.375	0.57
259.841	0.57
260.308	0.57
260.775	0.56
261.242	0.56
261.709	0.56
262.175	0.56
262.642	0.56
263.109	0.56
263.575	0.56
264.042	0.56
264.508	0.56
264.975	0.56
265.441	0.55
265.908	0.55
266.374	0.55
266.841	0.55
267.307	0.55
267.773	0.54
268.24	0.54
268.706	0.54
269.172	0.54
269.639	0.53
270.105	0.53
270.571	0.53
271.037	0.52
271.503	0.52
271.969	0.52
272.435	0.52
272.902	0.51
273.368	0.51
273.834	0.51
274.3	0.5
274.765	0.5
275.231	0.5
275.697	0.5
276.163	0.49
276.629	0.49
277.095	0.49
277.56	0.48
278.026	0.48
278.492	0.48
278.958	0.47
279.423	0.47
279.889	0.46
280.354	0.46
280.82	0.46
281.286	0.45
281.751	0.45
282.217	0.44
282.682	0.44
283.147	0.44
283.613	0.43
284.078	0.43
284.544	0.43
285.009	0.43
285.474	0.42
285.939	0.42
286.405	0.42
286.87	0.41
287.335	0.41
287.8	0.41
288.265	0.41
288.73	0.4
289.195	0.4
289.66	0.4
290.125	0.4
290.59	0.39
291.055	0.39
291.52	0.39
291.985	0.39
292.45	0.39
292.915	0.38
293.38	0.38
293.844	0.38
294.309	0.38
294.774	0.38
295.239	0.37
295.703	0.37
296.168	0.37
296.632	0.37
297.097	0.37
297.562	0.37
298.026	0.36
298.491	0.36
298.955	0.36
299.419	0.36
299.884	0.36
300.348	0.36
300.813	0.36
301.277	0.35
301.741	0.35
302.205	0.35
302.67	0.35
303.134	0.35
303.598	0.35
304.062	0.35
304.526	0.35
304.99	0.35
305.454	0.34
305.919	0.34
306.383	0.34
306.847	0.34
307.31	0.34
307.774	0.34
308.238	0.34
308.702	0.34
309.166	0.33
309.63	0.33
310.094	0.33
310.557	0.33
311.021	0.33
311.485	0.33
311.948	0.33
312.412	0.33
312.876	0.33
313.339	0.33
313.803	0.32
314.266	0.32
314.73	0.32
315.193	0.32
315.657	0.32
316.12	0.32
316.584	0.32
317.047	0.32
317.51	0.32
317.973	0.32
318.437	0.31
318.9	0.31
319.363	0.31
319.826	0.31
320.29	0.31
320.753	0.31
321.216	0.31
321.679	0.31
322.142	0.31
322.605	0.31
323.068	0.31
323.531	0.3
323.994	0.3
324.457	0.3
324.92	0.3
325.382	0.3
325.845	0.3
326.308	0.3
326.771	0.3
327.233	0.3
327.696	0.3
328.159	0.3
328.622	0.3
329.084	0.29
329.547	0.29
330.009	0.29
330.472	0.29
330.934	0.29
331.397	0.29
331.859	0.29
332.322	0.29
332.784	0.29
333.246	0.29
333.709	0.29
334.171	0.29
334.633	0.29
335.096	0.29
335.558	0.28
336.02	0.28
336.482	0.28
336.944	0.28
337.406	0.28
337.868	0.28
338.331	0.28
338.793	0.28
339.255	0.28
339.717	0.28
340.178	0.28
340.64	0.28
341.102	0.28
341.564	0.28
342.026	0.28
342.488	0.28
342.949	0.28
343.411	0.28
343.873	0.27
344.335	0.27
344.796	0.27
345.258	0.27
345.719	0.27
346.181	0.27
346.643	0.27
347.104	0.27
347.566	0.27
348.027	0.27
348.488	0.27
348.95	0.27
349.411	0.27
349.873	0.27
350.334	0.27
350.795	0.27
351.256	0.27
351.718	0.27
352.179	0.27
352.64	0.27
353.101	0.27
353.562	0.27
354.023	0.27
354.484	0.27
354.945	0.27
355.406	0.27
355.867	0.27
356.328	0.27
356.789	0.27
357.25	0.27
357.711	0.26
358.172	0.26
358.633	0.26
359.093	0.26
359.554	0.26
360.015	0.26
360.476	0.26
360.936	0.26
361.397	0.26
361.858	0.26
362.318	0.26
362.779	0.26
363.239	0.26
363.7	0.26
364.16	0.26
364.621	0.26
365.081	0.26
365.541	0.26
366.002	0.26
366.462	0.26
366.922	0.26
367.383	0.26
367.843	0.26
368.303	0.26
368.763	0.26
369.223	0.26
369.684	0.26
370.144	0.26
370.604	0.26
371.064	0.26
371.524	0.26
371.984	0.26
372.444	0.26
372.904	0.26
373.363	0.26
373.823	0.26
374.283	0.26
374.743	0.26
375.203	0.26
375.663	0.26
376.122	0.25
376.582	0.25
377.042	0.25
377.501	0.25
377.961	0.25
378.42	0.25
378.88	0.25
379.34	0.25
379.799	0.25
380.259	0.25
380.718	0.25
381.177	0.25
381.637	0.25
382.096	0.25
382.555	0.25
383.015	0.25
383.474	0.25
383.933	0.25
384.393	0.25
384.852	0.25
385.311	0.25
385.77	0.25
386.229	0.25
386.688	0.25
387.147	0.25
387.606	0.25
388.065	0.25
388.524	0.25
388.983	0.25
389.442	0.24
389.901	0.24
390.36	0.24
390.819	0.24
391.277	0.24
391.736	0.24
392.195	0.24
392.654	0.24
393.112	0.24
393.571	0.24
394.03	0.24
394.488	0.24
394.947	0.24
395.405	0.24
395.864	0.24
396.322	0.24
396.781	0.24
397.239	0.24
397.698	0.24
398.156	0.24
398.614	0.24
399.073	0.24
399.531	0.24
399.989	0.24
400.447	0.24
400.905	0.24
401.364	0.24
401.822	0.23
402.28	0.23
402.738	0.23
403.196	0.23
403.654	0.23
404.112	0.23
404.57	0.23
405.028	0.23
405.486	0.23
405.944	0.23
406.402	0.23
406.859	0.23
407.317	0.23
407.775	0.23
408.233	0.23
408.691	0.23
409.148	0.23
409.606	0.23
410.064	0.23
410.521	0.23
410.979	0.23
411.436	0.23
411.894	0.23
412.351	0.23
412.809	0.23
413.266	0.23
413.724	0.23
414.181	0.23
414.638	0.23
415.096	0.23
415.553	0.23
416.01	0.23
416.467	0.23
416.925	0.23
417.382	0.22
417.839	0.22
418.296	0.22
418.753	0.22
419.21	0.22
419.667	0.22
420.124	0.22
420.581	0.22
421.038	0.22
421.495	0.22
421.952	0.22
422.409	0.22
422.866	0.22
423.322	0.22
423.779	0.22
424.236	0.22
424.693	0.22
425.149	0.22
425.606	0.22
426.063	0.22
426.519	0.22
426.976	0.22
427.433	0.22
427.889	0.22
428.346	0.22
428.802	0.22
429.258	0.22
429.715	0.22
430.171	0.22
430.628	0.22
431.084	0.22
431.54	0.22
431.997	0.22
432.453	0.22
432.909	0.22
433.365	0.22
433.821	0.22
434.277	0.22
434.734	0.22
435.19	0.22
435.646	0.22
436.102	0.22
436.558	0.22
437.014	0.22
437.47	0.22
437.925	0.22
438.381	0.22
438.837	0.22
439.293	0.22
439.749	0.22
440.205	0.21
440.66	0.21
441.116	0.21
441.572	0.21
442.027	0.21
442.483	0.21
442.939	0.21
443.394	0.21
443.85	0.21
444.305	0.21
444.761	0.21
445.216	0.21
445.672	0.21
446.127	0.21
446.582	0.21
447.038	0.21
447.493	0.21
447.948	0.21
448.403	0.21
448.859	0.21
449.314	0.21
449.769	0.21
450.224	0.21
450.679	0.21
451.134	0.21
451.589	0.21
452.044	0.21
452.499	0.21
452.954	0.21
453.409	0.21
453.864	0.21
454.319	0.21
454.774	0.21
455.229	0.21
455.684	0.21
456.138	0.21
456.593	0.21
457.048	0.21
457.503	0.21
457.957	0.21
458.412	0.21
458.866	0.21
459.321	0.21
459.776	0.21
460.23	0.21
460.685	0.21
461.139	0.21
461.593	0.21
462.048	0.21
462.502	0.21
462.957	0.22
463.411	0.22
463.865	0.22
464.319	0.22
464.774	0.22
465.228	0.22
465.682	0.22
466.136	0.22
466.59	0.22
467.044	0.22
467.499	0.22
467.953	0.22
468.407	0.22
468.861	0.22
469.315	0.22
469.768	0.22
470.222	0.22
470.676	0.22
471.13	0.22
471.584	0.22
472.038	0.22
472.491	0.22
472.945	0.22
473.399	0.22
473.852	0.22
474.306	0.22
474.76	0.22
475.213	0.23
475.667	0.23
476.12	0.23
476.574	0.23
477.027	0.23
477.481	0.23
477.934	0.23
478.388	0.23
478.841	0.23
479.294	0.23
479.748	0.23
480.201	0.23
480.654	0.23
481.107	0.24
481.561	0.24
482.014	0.24
482.467	0.24
482.92	0.24
483.373	0.24
483.826	0.24
484.279	0.24
484.732	0.24
485.185	0.25
485.638	0.25
486.091	0.25
486.544	0.25
486.997	0.25
487.449	0.25
487.902	0.25
488.355	0.25
488.808	0.26
489.26	0.26
489.713	0.26
490.166	0.26
490.618	0.26
491.071	0.26
491.523	0.27
491.976	0.27
492.429	0.27
492.881	0.27
493.333	0.27
493.786	0.27
494.238	0.28
494.691	0.28
495.143	0.28
495.595	0.28
496.048	0.28
496.5	0.29
496.952	0.29
497.404	0.29
497.856	0.29
498.309	0.29
498.761	0.3
499.213	0.3
499.665	0.3
500.117	0.3
500.569	0.3
501.021	0.31
501.473	0.31
501.925	0.31
502.377	0.31
502.828	0.32
503.28	0.32
503.732	0.32
504.184	0.32
504.636	0.32
505.087	0.33
505.539	0.33
505.991	0.33
506.442	0.33
506.894	0.33
507.345	0.34
507.797	0.34
508.249	0.34
508.7	0.34
509.151	0.34
509.603	0.35
510.054	0.35
510.506	0.35
510.957	0.35
511.408	0.35
511.86	0.35
512.311	0.36
512.762	0.36
513.213	0.36
513.665	0.36
514.116	0.36
514.567	0.36
515.018	0.36
515.469	0.37
515.92	0.37
516.371	0.37
516.822	0.37
517.273	0.37
517.724	0.37
518.175	0.37
518.626	0.37
519.076	0.37
519.527	0.37
519.978	0.37
520.429	0.37
520.88	0.38
521.33	0.38
521.781	0.38
522.232	0.38
522.682	0.38
523.133	0.38
523.583	0.38
524.034	0.38
524.484	0.38
524.935	0.38
525.385	0.37
525.836	0.37
526.286	0.37
526.736	0.37
527.187	0.37
527.637	0.37
528.087	0.37
528.538	0.37
528.988	0.37
529.438	0.37
529.888	0.37
530.338	0.37
530.788	0.36
531.238	0.36
531.688	0.36
532.139	0.36
532.589	0.36
533.038	0.36
533.488	0.35
533.938	0.35
534.388	0.35
534.838	0.35
535.288	0.35
535.738	0.34
536.187	0.34
536.637	0.34
537.087	0.34
537.537	0.34
537.986	0.33
538.436	0.33
538.885	0.33
539.335	0.33
539.785	0.32
540.234	0.32
540.684	0.32
541.133	0.32
541.582	0.31
542.032	0.31
542.481	0.31
542.931	0.3
543.38	0.3
543.829	0.3
544.278	0.3
544.728	0.29
545.177	0.29
545.626	0.29
546.075	0.28
546.524	0.28
546.973	0.28
547.422	0.28
547.871	0.27
548.32	0.27
548.769	0.27
549.218	0.26
549.667	0.26
550.116	0.26
550.565	0.25
551.014	0.25
551.463	0.25
551.911	0.24
552.36	0.24
552.809	0.24
553.258	0.23
553.706	0.23
554.155	0.23
554.603	0.22
555.052	0.22
555.501	0.22
555.949	0.21
556.398	0.21
556.846	0.21
557.294	0.21
557.743	0.2
558.191	0.2
558.64	0.2
559.088	0.19
559.536	0.19
559.985	0.19
560.433	0.19
560.881	0.18
561.329	0.18
561.777	0.18
562.225	0.18
562.674	0.17
563.122	0.17
563.57	0.17
564.018	0.17
564.466	0.16
564.914	0.16
565.362	0.16
565.809	0.16
566.257	0.15
566.705	0.15
567.153	0.15
567.601	0.15
568.048	0.14
568.496	0.14
568.944	0.14
569.392	0.14
569.839	0.14
570.287	0.13
570.734	0.13
571.182	0.13
571.63	0.13
572.077	0.13
572.525	0.13
572.972	0.12
573.419	0.12
573.867	0.12
574.314	0.12
574.761	0.12
575.209	0.12
575.656	0.12
576.103	0.11
576.551	0.11
576.998	0.11
577.445	0.11
577.892	0.11
578.339	0.11
578.786	0.11
579.233	0.1
579.68	0.1
580.127	0.1
580.574	0.1
581.021	0.1
581.468	0.1
581.915	0.1
582.362	0.09
582.809	0.09
583.255	0.09
583.702	0.09
584.149	0.09
584.596	0.09
585.042	0.08
585.489	0.08
585.936	0.08
586.382	0.08
586.829	0.08
587.275	0.08
587.722	0.08
588.168	0.08
588.615	0.08
589.061	0.07
589.508	0.07
589.954	0.07
590.4	0.07
590.847	0.07
591.293	0.07
591.739	0.07
592.185	0.07
592.632	0.07
593.078	0.07
593.524	0.07
593.97	0.07
594.416	0.07
594.862	0.07
595.308	0.07
595.754	0.07
596.2	0.07
596.646	0.07
597.092	0.06
597.538	0.06
597.984	0.06
598.43	0.06
598.876	0.06
599.321	0.06
599.767	0.06
600.213	0.06
600.659	0.06
601.104	0.06
601.55	0.06
601.995	0.06
602.441	0.06
602.887	0.06
603.332	0.06
603.778	0.06
604.223	0.06
604.668	0.06
605.114	0.06
605.559	0.06
606.005	0.06
606.45	0.06
606.895	0.06
607.341	0.06
607.786	0.06
608.231	0.06
608.676	0.06
609.121	0.06
609.566	0.06
610.012	0.06
610.457	0.06
610.902	0.06
611.347	0.06
611.792	0.06
612.237	0.06
612.682	0.06
613.127	0.06
613.571	0.06
614.016	0.06
614.461	0.06
614.906	0.06
615.351	0.06
615.795	0.06
616.24	0.06
616.685	0.06
617.129	0.06
617.574	0.06
618.019	0.06
618.463	0.06
618.908	0.06
619.352	0.06
619.797	0.07
620.241	0.07
620.686	0.07
621.13	0.07
621.574	0.07
622.019	0.07
622.463	0.07
622.907	0.07
623.352	0.07
623.796	0.07
624.24	0.07
624.684	0.07
625.128	0.07
625.572	0.07
626.016	0.07
626.461	0.07
626.905	0.07
627.349	0.07
627.793	0.08
628.236	0.08
628.68	0.08
629.124	0.08
629.568	0.08
630.012	0.08
630.456	0.08
630.9	0.08
631.343	0.08
631.787	0.08
632.231	0.09
632.674	0.09
633.118	0.09
633.562	0.09
634.005	0.09
634.449	0.09
634.892	0.1
635.336	0.1
635.779	0.1
636.223	0.1
636.666	0.1
637.109	0.1
637.553	0.11
637.996	0.11
638.439	0.11
638.883	0.11
639.326	0.11
639.769	0.11
640.212	0.12
640.655	0.12
641.099	0.12
641.542	0.12
641.985	0.13
642.428	0.13
642.871	0.13
643.314	0.13
643.757	0.14
644.2	0.14
644.643	0.14
645.085	0.14
645.528	0.15
645.971	0.15
646.414	0.15
646.857	0.15
647.299	0.16
647.742	0.16
648.185	0.16
648.627	0.17
649.07	0.17
649.513	0.17
649.955	0.18
650.398	0.18
650.84	0.18
651.283	0.18
651.725	0.19
652.168	0.19
652.61	0.19
653.052	0.2
653.495	0.21
653.937	0.16
654.379	0.13
654.821	0.13
655.264	0.14
655.706	0.14
656.148	0.14
656.59	0.14
657.032	0.15
657.474	0.15
657.916	0.15
658.358	0.14
658.8	0.18
659.242	0.24
659.684	0.25
660.126	0.25
660.568	0.26
661.01	0.26
661.452	0.27
661.894	0.27
662.335	0.27
662.777	0.28
663.219	0.28
663.661	0.29
664.102	0.29
664.544	0.29
664.985	0.3
665.427	0.3
665.869	0.3
666.31	0.31
666.752	0.31
667.193	0.31
667.634	0.32
668.076	0.32
668.517	0.32
668.959	0.33
669.4	0.33
669.841	0.33
670.282	0.33
670.724	0.34
671.165	0.34
671.606	0.34
672.047	0.34
672.488	0.34
672.929	0.35
673.37	0.35
673.811	0.35
674.252	0.35
674.693	0.36
675.134	0.36
675.575	0.36
676.016	0.36
676.457	0.37
676.898	0.37
677.339	0.37
677.78	0.37
678.22	0.37
678.661	0.37
679.102	0.37
679.542	0.37
679.983	0.38
680.424	0.38
680.864	0.38
681.305	0.38
681.745	0.38
682.186	0.38
682.626	0.38
683.067	0.38
683.507	0.38
683.948	0.38
684.388	0.38
684.828	0.38
685.269	0.38
685.709	0.39
686.149	0.39
686.589	0.39
687.029	0.39
687.47	0.38
687.91	0.38
688.35	0.38
688.79	0.38
689.23	0.38
689.67	0.38
690.11	0.38
690.55	0.38
690.99	0.38
691.43	0.38
691.87	0.38
692.31	0.38
692.749	0.37
693.189	0.37
693.629	0.37
694.069	0.37
694.508	0.37
694.948	0.37
695.388	0.36
695.827	0.36
696.267	0.36
696.706	0.36
697.146	0.36
697.586	0.35
698.025	0.35
698.464	0.35
698.904	0.35
699.343	0.34
699.783	0.34
700.222	0.34
700.661	0.34
701.101	0.34
701.54	0.33
701.979	0.33
702.418	0.33
702.857	0.33
703.297	0.32
703.736	0.32
704.175	0.32
704.614	0.32
705.053	0.31
705.492	0.31
705.931	0.31
706.37	0.3
706.809	0.3
707.248	0.3
707.687	0.3
708.125	0.29
708.564	0.29
709.003	0.29
709.442	0.29
709.88	0.28
710.319	0.28
710.758	0.28
711.196	0.27
711.635	0.27
712.074	0.27
712.512	0.26
712.951	0.26
713.389	0.26
713.828	0.25
714.266	0.25
714.705	0.25
715.143	0.25
715.581	0.24
716.02	0.24
716.458	0.24
716.896	0.23
717.334	0.23
717.773	0.23
718.211	0.23
718.649	0.22
719.087	0.22
719.525	0.22
719.963	0.22
720.401	0.21
720.839	0.21
721.277	0.21
721.715	0.2
722.153	0.2
722.591	0.2
723.029	0.2
723.467	0.19
723.905	0.19
724.342	0.19
724.78	0.18
725.218	0.18
725.656	0.18
726.093	0.18
726.531	0.18
726.969	0.17
727.406	0.17
727.844	0.17
728.281	0.17
728.719	0.17
729.156	0.17
729.594	0.16
730.031	0.16
730.469	0.16
730.906	0.16
731.343	0.15
731.781	0.15
732.218	0.15
732.655	0.15
733.092	0.15
733.53	0.14
733.967	0.14
734.404	0.14
734.841	0.14
735.278	0.13
735.715	0.13
736.152	0.13
736.589	0.13
737.026	0.13
737.463	0.12
737.9	0.12
738.337	0.12
738.774	0.12
739.211	0.11
739.647	0.11
740.084	0.11
740.521	0.11
740.958	0.11
741.394	0.1
741.831	0.1
742.268	0.1
742.704	0.1
743.141	0.1
743.577	0.09
744.014	0.09
744.45	0.09
744.887	0.09
745.323	0.08
745.76	0.08
746.196	0.08
746.632	0.08
747.069	0.08
747.505	0.07
747.941	0.07
748.378	0.07
748.814	0.07
749.25	0.07
749.686	0.07
750.122	0.07
750.558	0.07
750.994	0.07
751.43	0.06
751.866	0.06
752.302	0.06
752.738	0.06
753.174	0.06
753.61	0.06
754.046	0.05
754.482	0.05
754.918	0.05
755.354	0.05
755.789	0.05
756.225	0.05
756.661	0.05
757.096	0.05
757.532	0.05
757.968	0.04
758.403	0.04
758.839	0.04
759.274	0.04
759.71	0.04
760.145	0.04
760.581	0.04
761.016	0.03
761.452	0.03
761.887	0.03
762.322	0.03
762.758	0.03
763.193	0.03
763.628	0.03
764.063	0.03
764.499	0.03
764.934	0.02
765.369	0.02
765.804	0.02
766.239	0.02
766.674	0.02
767.109	0.02
767.544	0.02
767.979	0.02
768.414	0.02
768.849	0.01
769.284	0.01
769.719	0.01
770.154	0.01
770.588	0.01
771.023	0.01
771.458	0
771.893	0
772.327	0
772.762	-0
773.197	-0
773.631	-0.01
774.066	-0.01
774.5	-0.01
774.935	-0.01
775.369	-0.02
775.804	-0.02
776.238	-0.02
776.673	-0.02
777.107	-0.02
777.541	-0.02
777.976	-0.03
778.41	-0.03
778.844	-0.03
779.279	-0.03
779.713	-0.03
780.147	-0.03
780.581	-0.03
781.015	-0.04
781.449	-0.04
781.883	-0.04
782.317	-0.04
782.751	-0.05
783.185	-0.05
783.619	-0.05
784.053	-0.06
784.487	-0.06
784.921	-0.06
785.355	-0.06
785.789	-0.07
786.223	-0.07
786.656	-0.07
787.09	-0.07
787.524	-0.07
787.957	-0.08
788.391	-0.08
788.825	-0.08
789.258	-0.09
789.692	-0.09
790.125	-0.09
790.559	-0.1
790.992	-0.1
791.426	-0.11
791.859	-0.11
792.293	-0.1
792.726	-0.1
793.159	-0.1
793.593	-0.1
794.026	-0.1
794.459	-0.11
794.892	-0.11
795.326	-0.11
795.759	-0.11
796.192	-0.11
796.625	-0.12
797.058	-0.13
797.491	-0.14
797.924	-0.15
798.357	-0.15
798.79	-0.15
799.223	-0.15
799.656	-0.15
800.089	-0.15
800.522	-0.15
800.955	-0.16
801.387	-0.15
801.82	-0.16
802.253	-0.16
802.686	-0.16
803.118	-0.16
803.551	-0.16
803.984	-0.15
804.416	-0.15
804.849	-0.14
805.281	-0.14
805.714	-0.14
806.146	-0.14
806.579	-0.13
807.011	-0.13
807.444	-0.13
807.876	-0.13
808.308	-0.13
808.741	-0.14
809.173	-0.14
809.605	-0.15
810.037	-0.15
810.47	-0.15
810.902	-0.15
811.334	-0.15
811.766	-0.15
812.198	-0.14
812.63	-0.14
813.062	-0.13
813.494	-0.13
813.926	-0.12
814.358	-0.12
814.79	-0.11
815.222	-0.1
815.654	-0.1
816.086	-0.09
816.518	-0.09
816.949	-0.09
817.381	-0.08
817.813	-0.08
818.245	-0.07
818.676	-0.07
819.108	-0.07
819.54	-0.06
819.971	-0.06
820.403	-0.06
820.834	-0.06
821.266	-0.05
821.697	-0.05
822.129	-0.05
822.56	-0.05
822.991	-0.04
823.423	-0.04
823.854	-0.04
824.286	-0.04
824.717	-0.04
825.148	-0.04
825.579	-0.04
826.01	-0.03
826.442	-0.03
826.873	-0.03
827.304	-0.03
827.735	-0.03
828.166	-0.03
828.597	-0.03
829.028	-0.03
829.459	-0.03
829.89	-0.03
830.321	-0.03
830.752	-0.03
831.183	-0.03
831.613	-0.03
832.044	-0.03
832.475	-0.03
832.906	-0.03
833.336	-0.03
833.767	-0.03
834.198	-0.03
834.628	-0.03
835.059	-0.03
835.49	-0.03
835.92	-0.03
836.351	-0.03
836.781	-0.03
837.212	-0.03
837.642	-0.03
838.072	-0.03
838.503	-0.03
838.933	-0.03
839.364	-0.03
839.794	-0.03
840.224	-0.03
840.654	-0.03
841.085	-0.03
841.515	-0.03
841.945	-0.04
842.375	-0.04
842.805	-0.04
843.235	-0.04
843.665	-0.04
844.095	-0.04
844.525	-0.03
844.955	-0.03
845.385	-0.03
845.815	-0.03
846.245	-0.03
846.675	-0.03
847.105	-0.03
847.534	-0.03
847.964	-0.03
848.394	-0.03
848.824	-0.03
849.253	-0.03
849.683	-0.03
850.112	-0.03
850.542	-0.03
850.972	-0.03
851.401	-0.03
851.831	-0.03
852.26	-0.03
852.69	-0.03
853.119	-0.03
853.548	-0.03
853.978	-0.03
854.407	-0.03
854.836	-0.03
855.266	-0.03
855.695	-0.03
856.124	-0.03
856.553	-0.03
856.983	-0.03
857.412	-0.03
857.841	-0.03
858.27	-0.03
858.699	-0.03
859.128	-0.03
859.557	-0.03
859.986	-0.03
860.415	-0.03
860.844	-0.03
861.273	-0.03
861.702	-0.03
862.13	-0.03
862.559	-0.03
862.988	-0.03
863.417	-0.03
863.845	-0.03
864.274	-0.03
864.703	-0.03
865.131	-0.03
865.56	-0.03
865.989	-0.03
866.417	-0.03
866.846	-0.03
867.274	-0.03
867.703	-0.03
868.131	-0.03
868.559	-0.03
868.988	-0.03
869.416	-0.03
869.844	-0.03
870.273	-0.03
870.701	-0.03
871.129	-0.03
871.557	-0.03
871.986	-0.04
872.414	-0.04
872.842	-0.04
873.27	-0.04
873.698	-0.04
874.126	-0.04
874.554	-0.04
874.982	-0.04
875.41	-0.04
875.838	-0.04
876.266	-0.04
876.694	-0.04
877.122	-0.04
877.549	-0.04
877.977	-0.04
878.405	-0.04
878.833	-0.04
879.26	-0.04
879.688	-0.04
880.116	-0.04
880.543	-0.04
880.971	-0.04
881.399	-0.04
881.826	-0.04
882.254	-0.04
882.681	-0.04
883.109	-0.04
883.536	-0.04
883.963	-0.04
884.391	-0.04
884.818	-0.04
885.245	-0.04
885.673	-0.04
886.1	-0.04
886.527	-0.04
886.954	-0.04
887.381	-0.04
887.809	-0.04
888.236	-0.04
888.663	-0.04
889.09	-0.04
889.517	-0.04
889.944	-0.04
890.371	-0.04
890.798	-0.04
891.225	-0.04
891.652	-0.04
892.078	-0.04
892.505	-0.04
892.932	-0.04
893.359	-0.04
893.786	-0.04
894.212	-0.04
894.639	-0.03
895.066	-0.03
895.492	-0.03
895.919	-0.04
896.346	-0.04
896.772	-0.04
897.199	-0.04
897.625	-0.04
898.052	-0.04
898.478	-0.04
898.904	-0.04
899.331	-0.05
899.757	-0.05
900.183	-0.05
900.61	-0.05
901.036	-0.05
901.462	-0.05
901.888	-0.05
902.315	-0.05
902.741	-0.05
903.167	-0.05
903.593	-0.05
904.019	-0.05
904.445	-0.05
904.871	-0.05
905.297	-0.05
905.723	-0.05
906.149	-0.04
906.575	-0.04
907.001	-0.04
907.427	-0.04
907.852	-0.04
908.278	-0.04
908.704	-0.04
909.13	-0.04
909.555	-0.04
909.981	-0.04
910.407	-0.04
910.832	-0.04
911.258	-0.04
911.684	-0.04
912.109	-0.04
912.535	-0.04
912.96	-0.04
913.386	-0.04
913.811	-0.04
914.236	-0.04
914.662	-0.03
915.087	-0.03
915.512	-0.03
915.938	-0.03
916.363	-0.03
916.788	-0.03
917.213	-0.03
917.639	-0.03
918.064	-0.03
918.489	-0.03
918.914	-0.03
919.339	-0.03
919.764	-0.03
920.189	-0.03
920.614	-0.03
921.039	-0.03
921.464	-0.03
921.889	-0.03
922.314	-0.03
922.738	-0.03
923.163	-0.03
923.588	-0.03
924.013	-0.03
924.437	-0.03
924.862	-0.03
925.287	-0.03
925.711	-0.03
926.136	-0.03
926.561	-0.03
926.985	-0.03
927.41	-0.03
927.834	-0.03
928.259	-0.03
928.683	-0.03
929.108	-0.03
929.532	-0.03
929.956	-0.03
930.381	-0.03
930.805	-0.03
931.229	-0.03
931.653	-0.03
932.078	-0.03
932.502	-0.03
932.926	-0.03
933.35	-0.04
933.774	-0.04
934.198	-0.04
934.622	-0.04
935.046	-0.04
935.47	-0.03
935.894	-0.03
936.318	-0.03
936.742	-0.03
937.166	-0.03
937.59	-0.03
938.014	-0.03
938.437	-0.03
938.861	-0.03
939.285	-0.03
939.709	-0.03
940.132	-0.03
940.556	-0.03
940.98	-0.04
941.403	-0.04
941.827	-0.04
942.25	-0.04
942.674	-0.04
943.097	-0.04
943.521	-0.04
943.944	-0.04
944.368	-0.04
944.791	-0.04
945.214	-0.04
945.638	-0.04
946.061	-0.04
946.484	-0.04
946.907	-0.04
947.331	-0.04
947.754	-0.04
948.177	-0.04
948.6	-0.04
949.023	-0.04
949.446	-0.04
949.869	-0.04
950.292	-0.03
950.715	-0.03
951.138	-0.03
951.561	-0.04
951.984	-0.04
952.407	-0.04
952.83	-0.04
953.252	-0.04
953.675	-0.04
954.098	-0.04
954.521	-0.04
954.943	-0.04
955.366	-0.04
955.789	-0.04
956.211	-0.04
956.634	-0.04
957.056	-0.04
957.479	-0.04
957.902	-0.04
958.324	-0.04
958.746	-0.04
959.169	-0.03
959.591	-0.03
960.014	-0.03
960.436	-0.03
960.858	-0.03
961.281	-0.03
961.703	-0.03
962.125	-0.03
962.547	-0.03
962.969	-0.03
963.391	-0.03
963.814	-0.03
964.236	-0.03
964.658	-0.03
965.08	-0.03
965.502	-0.03
965.924	-0.03
966.346	-0.03
966.768	-0.03
967.189	-0.03
967.611	-0.03
968.033	-0.03
968.455	-0.03
968.877	-0.03
969.298	-0.03
969.72	-0.03
970.142	-0.04
970.563	-0.04
970.985	-0.04
971.407	-0.04
971.828	-0.04
972.25	-0.04
972.671	-0.04
973.093	-0.04
973.514	-0.03
973.936	-0.03
974.357	-0.03
974.778	-0.03
975.2	-0.03
975.621	-0.03
976.042	-0.03
976.464	-0.03
976.885	-0.03
977.306	-0.03
977.727	-0.03
978.148	-0.03
978.57	-0.03
978.991	-0.03
979.412	-0.03
979.833	-0.03
980.254	-0.03
980.675	-0.03
981.096	-0.03
981.517	-0.03
981.937	-0.03
982.358	-0.03
982.779	-0.03
983.2	-0.03
983.621	-0.03
984.042	-0.03
984.462	-0.03
984.883	-0.03
985.304	-0.03
985.724	-0.04
986.145	-0.04
986.565	-0.04
986.986	-0.04
987.407	-0.04
987.827	-0.04
988.248	-0.04
988.668	-0.04
989.088	-0.04
989.509	-0.04
989.929	-0.04
990.35	-0.04
990.77	-0.04
991.19	-0.04
991.61	-0.04
992.031	-0.04
992.451	-0.04
992.871	-0.04
993.291	-0.04
993.711	-0.04
994.131	-0.03
994.551	-0.03
994.971	-0.03
995.391	-0.03
995.811	-0.03
996.231	-0.04
996.651	-0.04
997.071	-0.04
997.491	-0.04
997.911	-0.04
998.331	-0.04
998.75	-0.04
999.17	-0.04
999.59	-0.04
1000.009	-0.04
1000.429	-0.04
1000.849	-0.04
1001.268	-0.04
1001.688	-0.04
1002.107	-0.04
1002.527	-0.04
1002.946	-0.04
1003.366	-0.04
1003.785	-0.04
1004.205	-0.04
1004.624	-0.04
1005.044	-0.04
1005.463	-0.04
1005.882	-0.04
1006.301	-0.04
1006.721	-0.04
1007.14	-0.04
1007.559	-0.04
1007.978	-0.04
1008.397	-0.04
1008.816	-0.04
1009.235	-0.04
1009.655	-0.05
1010.074	-0.05
1010.492	-0.05
1010.911	-0.05
1011.33	-0.05
1011.749	-0.05
1012.168	-0.04
1012.587	-0.04
1013.006	-0.04
1013.425	-0.04
1013.843	-0.04
1014.262	-0.04
1014.681	-0.04
1015.099	-0.04
1015.518	-0.04
1015.937	-0.04
1016.355	-0.04
1016.774	-0.04
1017.192	-0.04
1017.611	-0.04
1018.029	-0.04
1018.448	-0.04
1018.866	-0.04
1019.285	-0.04
1019.703	-0.04
1020.121	-0.04
1020.54	-0.04
1020.958	-0.04
1021.376	-0.04
1021.794	-0.04
1022.213	-0.04
1022.631	-0.04
1023.049	-0.04
1023.467	-0.04
1023.885	-0.04
1024.303	-0.04
1024.721	-0.04
1025.139	-0.04
1025.557	-0.04
1025.975	-0.04
1026.393	-0.04
1026.811	-0.04
1027.229	-0.04
1027.647	-0.04
1028.065	-0.04
1028.482	-0.04
1028.9	-0.04
1029.318	-0.04
1029.735	-0.04
1030.153	-0.04
1030.571	-0.04
1030.988	-0.04
1031.406	-0.04
1031.823	-0.04
1032.241	-0.04
1032.659	-0.04
1033.076	-0.04
1033.493	-0.04
1033.911	-0.04
1034.328	-0.04
1034.746	-0.04
1035.163	-0.04
1035.58	-0.04
1035.997	-0.04
1036.415	-0.04
1036.832	-0.04
1037.249	-0.04
1037.666	-0.04
1038.083	-0.04
1038.501	-0.04
1038.918	-0.04
1039.335	-0.04
1039.752	-0.04
1040.169	-0.04
1040.586	-0.04
1041.003	-0.04
1041.419	-0.04
1041.836	-0.04
1042.253	-0.04
1042.67	-0.04
1043.087	-0.04
1043.504	-0.04
1043.92	-0.04
1044.337	-0.04
1044.754	-0.04
1045.17	-0.04
1045.587	-0.04
1046.004	-0.04
1046.42	-0.04
1046.837	-0.04
1047.253	-0.04
1047.67	-0.04
1048.086	-0.04
1048.503	-0.04
1048.919	-0.04
1049.335	-0.04
1049.752	-0.04
1050.168	-0.04
1050.584	-0.04
1051.001	-0.04
1051.417	-0.04
1051.833	-0.03
1052.249	-0.03
1052.665	-0.03
1053.081	-0.03
1053.497	-0.03
1053.914	-0.03
1054.33	-0.03
1054.746	-0.03
1055.162	-0.03
1055.578	-0.04
1055.993	-0.04
1056.409	-0.04
1056.825	-0.04
1057.241	-0.04
1057.657	-0.04
1058.073	-0.04
1058.488	-0.04
1058.904	-0.04
1059.32	-0.04
1059.736	-0.04
1060.151	-0.04
1060.567	-0.04
1060.982	-0.04
1061.398	-0.04
1061.813	-0.04
1062.229	-0.04
1062.644	-0.04
1063.06	-0.04
1063.475	-0.04
1063.891	-0.04
1064.306	-0.04
1064.721	-0.04
1065.137	-0.04
1065.552	-0.04
1065.967	-0.04
1066.382	-0.04
1066.798	-0.04
1067.213	-0.04
1067.628	-0.04
1068.043	-0.04
1068.458	-0.04
1068.873	-0.04
1069.288	-0.04
1069.703	-0.04
1070.118	-0.04
1070.533	-0.04
1070.948	-0.04
1071.363	-0.04
1071.778	-0.04
1072.193	-0.04
1072.607	-0.04
1073.022	-0.04
1073.437	-0.04
1073.852	-0.04
1074.266	-0.04
1074.681	-0.04
1075.096	-0.04
1075.51	-0.04
1075.925	-0.04
1076.339	-0.04
1076.754	-0.04
1077.168	-0.04
1077.583	-0.05
1077.997	-0.05
1078.412	-0.05
1078.826	-0.05
1079.24	-0.05
1079.655	-0.05
1080.069	-0.05
1080.483	-0.05
1080.897	-0.05
1081.312	-0.05
1081.726	-0.05
1082.14	-0.05
1082.554	-0.05
1082.968	-0.05
1083.382	-0.05
1083.796	-0.05
1084.21	-0.05
1084.624	-0.05
1085.038	-0.05
1085.452	-0.05
1085.866	-0.05
1086.28	-0.05
1086.694	-0.05
1087.108	-0.05
1087.521	-0.05
1087.935	-0.05
1088.349	-0.05
1088.763	-0.05
1089.176	-0.05
1089.59	-0.05
1090.004	-0.05
1090.417	-0.05
1090.831	-0.06
1091.244	-0.06
1091.658	-0.06
1092.071	-0.06
1092.485	-0.06
1092.898	-0.06
1093.312	-0.06
1093.725	-0.06
1094.138	-0.06
1094.552	-0.06
1094.965	-0.06
1095.378	-0.06
1095.791	-0.06
1096.205	-0.06
1096.618	-0.07
1097.031	-0.07
1097.444	-0.07
1097.857	-0.07
1098.27	-0.07
1098.683	-0.07
1099.096	-0.07
1099.509	-0.07
1099.922	-0.07
1100.335	-0.07
1100.748	-0.07
1101.161	-0.07
1101.574	-0.07
1101.986	-0.07
1102.399	-0.07
1102.812	-0.07
1103.225	-0.07
1103.637	-0.07
1104.05	-0.07
1104.463	-0.07
1104.875	-0.07
1105.288	-0.08
1105.7	-0.08
1106.113	-0.08
1106.525	-0.08
1106.938	-0.08
1107.35	-0.08
1107.763	-0.08
1108.175	-0.08
1108.588	-0.09
1109	-0.09
1109.412	-0.09
1109.824	-0.09
1110.237	-0.09
1110.649	-0.09
1111.061	-0.09
