Data from 2024-02-06-100ns-20nr-25nacl-100h2o-7bp2-1_8a808-40to10hyt-0_5cpm_Absorbance__52__00441.txt Node

Date: Tue Feb 06 15:50:20 CET 2024
User: Laser008
Spectrometer: MAYP115816
Trigger mode: 0
Integration Time (sec): 2.000000E-1
Scans to average: 10
Electric dark correction enabled: true
Nonlinearity correction enabled: true
Boxcar width: 5
XAxis mode: Wavelengths
Number of Pixels in Spectrum: 2068
>>>>>Begin Spectral Data<<<<<
198.914	-0.26
199.384	-0.23
199.855	-0.18
200.325	-0.14
200.796	-0.12
201.266	-0.1
201.737	-0.09
202.207	-0.08
202.677	-0.08
203.147	-0.07
203.618	-0.06
204.088	-0.05
204.558	-0.04
205.028	-0.04
205.498	-0.04
205.968	-0.04
206.439	-0.04
206.909	-0.04
207.379	-0.04
207.849	-0.04
208.319	-0.05
208.789	-0.04
209.258	-0.05
209.728	-0.05
210.198	-0.05
210.668	-0.05
211.138	-0.05
211.608	-0.05
212.077	-0.05
212.547	-0.05
213.017	-0.05
213.486	-0.05
213.956	-0.05
214.426	-0.05
214.895	-0.05
215.365	-0.05
215.834	-0.05
216.304	-0.05
216.773	-0.04
217.243	-0.04
217.712	-0.04
218.181	-0.03
218.651	-0.03
219.12	-0.03
219.589	-0.02
220.058	-0.02
220.528	-0.02
220.997	-0.02
221.466	-0.01
221.935	-0.01
222.404	-0.01
222.873	-0
223.342	-0
223.812	0
224.281	0
224.749	0.01
225.218	0.01
225.687	0.02
226.156	0.03
226.625	0.04
227.094	0.04
227.563	0.06
228.031	0.07
228.5	0.08
228.969	0.1
229.438	0.11
229.906	0.13
230.375	0.15
230.844	0.18
231.312	0.2
231.781	0.21
232.249	0.24
232.718	0.26
233.186	0.28
233.655	0.3
234.123	0.32
234.591	0.34
235.06	0.36
235.528	0.37
235.996	0.38
236.465	0.39
236.933	0.4
237.401	0.41
237.869	0.42
238.337	0.43
238.805	0.44
239.274	0.44
239.742	0.45
240.21	0.45
240.678	0.46
241.146	0.46
241.614	0.46
242.081	0.47
242.549	0.47
243.017	0.47
243.485	0.47
243.953	0.48
244.421	0.48
244.888	0.48
245.356	0.48
245.824	0.48
246.291	0.49
246.759	0.49
247.227	0.49
247.694	0.49
248.162	0.49
248.629	0.5
249.097	0.5
249.564	0.5
250.032	0.5
250.499	0.5
250.967	0.5
251.434	0.51
251.901	0.51
252.369	0.51
252.836	0.51
253.303	0.51
253.77	0.51
254.237	0.51
254.705	0.52
255.172	0.52
255.639	0.52
256.106	0.52
256.573	0.52
257.04	0.52
257.507	0.52
257.974	0.52
258.441	0.52
258.908	0.52
259.375	0.52
259.841	0.52
260.308	0.52
260.775	0.52
261.242	0.52
261.709	0.52
262.175	0.52
262.642	0.52
263.109	0.52
263.575	0.52
264.042	0.51
264.508	0.51
264.975	0.51
265.441	0.51
265.908	0.51
266.374	0.51
266.841	0.51
267.307	0.5
267.773	0.5
268.24	0.5
268.706	0.5
269.172	0.5
269.639	0.49
270.105	0.49
270.571	0.49
271.037	0.49
271.503	0.48
271.969	0.48
272.435	0.48
272.902	0.48
273.368	0.47
273.834	0.47
274.3	0.47
274.765	0.47
275.231	0.46
275.697	0.46
276.163	0.46
276.629	0.45
277.095	0.45
277.56	0.45
278.026	0.45
278.492	0.44
278.958	0.44
279.423	0.43
279.889	0.43
280.354	0.43
280.82	0.42
281.286	0.42
281.751	0.42
282.217	0.41
282.682	0.41
283.147	0.41
283.613	0.41
284.078	0.4
284.544	0.4
285.009	0.4
285.474	0.4
285.939	0.39
286.405	0.39
286.87	0.39
287.335	0.39
287.8	0.38
288.265	0.38
288.73	0.38
289.195	0.38
289.66	0.37
290.125	0.37
290.59	0.37
291.055	0.37
291.52	0.37
291.985	0.36
292.45	0.36
292.915	0.36
293.38	0.36
293.844	0.36
294.309	0.36
294.774	0.35
295.239	0.35
295.703	0.35
296.168	0.35
296.632	0.35
297.097	0.35
297.562	0.35
298.026	0.34
298.491	0.34
298.955	0.34
299.419	0.34
299.884	0.34
300.348	0.34
300.813	0.34
301.277	0.34
301.741	0.34
302.205	0.33
302.67	0.33
303.134	0.33
303.598	0.33
304.062	0.33
304.526	0.33
304.99	0.33
305.454	0.33
305.919	0.33
306.383	0.33
306.847	0.32
307.31	0.32
307.774	0.32
308.238	0.32
308.702	0.32
309.166	0.32
309.63	0.32
310.094	0.32
310.557	0.32
311.021	0.32
311.485	0.32
311.948	0.31
312.412	0.31
312.876	0.31
313.339	0.31
313.803	0.31
314.266	0.31
314.73	0.31
315.193	0.31
315.657	0.31
316.12	0.31
316.584	0.31
317.047	0.31
317.51	0.3
317.973	0.3
318.437	0.3
318.9	0.3
319.363	0.3
319.826	0.3
320.29	0.3
320.753	0.3
321.216	0.3
321.679	0.3
322.142	0.3
322.605	0.3
323.068	0.29
323.531	0.29
323.994	0.29
324.457	0.29
324.92	0.29
325.382	0.29
325.845	0.29
326.308	0.29
326.771	0.29
327.233	0.29
327.696	0.29
328.159	0.29
328.622	0.29
329.084	0.28
329.547	0.28
330.009	0.28
330.472	0.28
330.934	0.28
331.397	0.28
331.859	0.28
332.322	0.28
332.784	0.28
333.246	0.28
333.709	0.28
334.171	0.28
334.633	0.28
335.096	0.28
335.558	0.28
336.02	0.27
336.482	0.27
336.944	0.27
337.406	0.27
337.868	0.27
338.331	0.27
338.793	0.27
339.255	0.27
339.717	0.27
340.178	0.27
340.64	0.27
341.102	0.27
341.564	0.27
342.026	0.27
342.488	0.27
342.949	0.27
343.411	0.27
343.873	0.27
344.335	0.27
344.796	0.27
345.258	0.27
345.719	0.26
346.181	0.26
346.643	0.26
347.104	0.26
347.566	0.26
348.027	0.26
348.488	0.26
348.95	0.26
349.411	0.26
349.873	0.26
350.334	0.26
350.795	0.26
351.256	0.26
351.718	0.26
352.179	0.26
352.64	0.26
353.101	0.26
353.562	0.26
354.023	0.26
354.484	0.26
354.945	0.26
355.406	0.26
355.867	0.26
356.328	0.26
356.789	0.26
357.25	0.26
357.711	0.26
358.172	0.26
358.633	0.26
359.093	0.26
359.554	0.26
360.015	0.26
360.476	0.26
360.936	0.26
361.397	0.26
361.858	0.26
362.318	0.26
362.779	0.26
363.239	0.26
363.7	0.26
364.16	0.26
364.621	0.26
365.081	0.26
365.541	0.26
366.002	0.25
366.462	0.25
366.922	0.25
367.383	0.25
367.843	0.25
368.303	0.25
368.763	0.25
369.223	0.25
369.684	0.25
370.144	0.25
370.604	0.25
371.064	0.25
371.524	0.25
371.984	0.25
372.444	0.25
372.904	0.25
373.363	0.25
373.823	0.25
374.283	0.25
374.743	0.25
375.203	0.25
375.663	0.25
376.122	0.25
376.582	0.25
377.042	0.25
377.501	0.25
377.961	0.25
378.42	0.25
378.88	0.25
379.34	0.25
379.799	0.25
380.259	0.25
380.718	0.25
381.177	0.25
381.637	0.25
382.096	0.25
382.555	0.25
383.015	0.24
383.474	0.24
383.933	0.24
384.393	0.24
384.852	0.24
385.311	0.24
385.77	0.24
386.229	0.24
386.688	0.24
387.147	0.24
387.606	0.24
388.065	0.24
388.524	0.24
388.983	0.24
389.442	0.24
389.901	0.24
390.36	0.24
390.819	0.24
391.277	0.24
391.736	0.24
392.195	0.24
392.654	0.24
393.112	0.24
393.571	0.24
394.03	0.24
394.488	0.24
394.947	0.24
395.405	0.24
395.864	0.24
396.322	0.24
396.781	0.24
397.239	0.23
397.698	0.23
398.156	0.23
398.614	0.23
399.073	0.23
399.531	0.23
399.989	0.23
400.447	0.23
400.905	0.23
401.364	0.23
401.822	0.23
402.28	0.23
402.738	0.23
403.196	0.23
403.654	0.23
404.112	0.23
404.57	0.23
405.028	0.23
405.486	0.23
405.944	0.23
406.402	0.23
406.859	0.23
407.317	0.23
407.775	0.23
408.233	0.23
408.691	0.23
409.148	0.23
409.606	0.23
410.064	0.23
410.521	0.23
410.979	0.23
411.436	0.23
411.894	0.23
412.351	0.22
412.809	0.22
413.266	0.22
413.724	0.22
414.181	0.22
414.638	0.22
415.096	0.22
415.553	0.22
416.01	0.22
416.467	0.22
416.925	0.22
417.382	0.22
417.839	0.22
418.296	0.22
418.753	0.22
419.21	0.22
419.667	0.22
420.124	0.22
420.581	0.22
421.038	0.22
421.495	0.22
421.952	0.22
422.409	0.22
422.866	0.22
423.322	0.22
423.779	0.22
424.236	0.22
424.693	0.22
425.149	0.22
425.606	0.22
426.063	0.22
426.519	0.22
426.976	0.22
427.433	0.22
427.889	0.22
428.346	0.22
428.802	0.22
429.258	0.22
429.715	0.22
430.171	0.21
430.628	0.21
431.084	0.21
431.54	0.21
431.997	0.21
432.453	0.21
432.909	0.21
433.365	0.21
433.821	0.21
434.277	0.21
434.734	0.21
435.19	0.21
435.646	0.21
436.102	0.21
436.558	0.21
437.014	0.21
437.47	0.21
437.925	0.21
438.381	0.21
438.837	0.21
439.293	0.21
439.749	0.21
440.205	0.21
440.66	0.21
441.116	0.21
441.572	0.21
442.027	0.21
442.483	0.21
442.939	0.21
443.394	0.21
443.85	0.21
444.305	0.21
444.761	0.21
445.216	0.21
445.672	0.21
446.127	0.21
446.582	0.21
447.038	0.21
447.493	0.21
447.948	0.21
448.403	0.21
448.859	0.21
449.314	0.21
449.769	0.21
450.224	0.21
450.679	0.21
451.134	0.21
451.589	0.21
452.044	0.21
452.499	0.21
452.954	0.21
453.409	0.21
453.864	0.21
454.319	0.21
454.774	0.21
455.229	0.21
455.684	0.21
456.138	0.21
456.593	0.21
457.048	0.21
457.503	0.21
457.957	0.21
458.412	0.21
458.866	0.21
459.321	0.21
459.776	0.21
460.23	0.21
460.685	0.21
461.139	0.21
461.593	0.21
462.048	0.21
462.502	0.21
462.957	0.21
463.411	0.21
463.865	0.21
464.319	0.21
464.774	0.21
465.228	0.21
465.682	0.21
466.136	0.21
466.59	0.21
467.044	0.21
467.499	0.21
467.953	0.21
468.407	0.21
468.861	0.21
469.315	0.21
469.768	0.21
470.222	0.21
470.676	0.21
471.13	0.21
471.584	0.21
472.038	0.21
472.491	0.22
472.945	0.22
473.399	0.22
473.852	0.22
474.306	0.22
474.76	0.22
475.213	0.22
475.667	0.22
476.12	0.22
476.574	0.22
477.027	0.22
477.481	0.22
477.934	0.22
478.388	0.22
478.841	0.22
479.294	0.22
479.748	0.22
480.201	0.23
480.654	0.23
481.107	0.23
481.561	0.23
482.014	0.23
482.467	0.23
482.92	0.23
483.373	0.23
483.826	0.23
484.279	0.23
484.732	0.23
485.185	0.24
485.638	0.24
486.091	0.24
486.544	0.24
486.997	0.24
487.449	0.24
487.902	0.24
488.355	0.24
488.808	0.24
489.26	0.25
489.713	0.25
490.166	0.25
490.618	0.25
491.071	0.25
491.523	0.25
491.976	0.26
492.429	0.26
492.881	0.26
493.333	0.26
493.786	0.26
494.238	0.26
494.691	0.27
495.143	0.27
495.595	0.27
496.048	0.27
496.5	0.27
496.952	0.27
497.404	0.28
497.856	0.28
498.309	0.28
498.761	0.28
499.213	0.28
499.665	0.29
500.117	0.29
500.569	0.29
501.021	0.29
501.473	0.3
501.925	0.3
502.377	0.3
502.828	0.3
503.28	0.31
503.732	0.31
504.184	0.31
504.636	0.31
505.087	0.31
505.539	0.32
505.991	0.32
506.442	0.32
506.894	0.32
507.345	0.32
507.797	0.33
508.249	0.33
508.7	0.33
509.151	0.33
509.603	0.33
510.054	0.34
510.506	0.34
510.957	0.34
511.408	0.34
511.86	0.34
512.311	0.35
512.762	0.35
513.213	0.35
513.665	0.35
514.116	0.35
514.567	0.35
515.018	0.36
515.469	0.36
515.92	0.36
516.371	0.36
516.822	0.36
517.273	0.36
517.724	0.36
518.175	0.36
518.626	0.37
519.076	0.37
519.527	0.37
519.978	0.37
520.429	0.37
520.88	0.37
521.33	0.37
521.781	0.37
522.232	0.37
522.682	0.37
523.133	0.37
523.583	0.37
524.034	0.37
524.484	0.37
524.935	0.37
525.385	0.37
525.836	0.37
526.286	0.37
526.736	0.37
527.187	0.37
527.637	0.37
528.087	0.37
528.538	0.37
528.988	0.37
529.438	0.37
529.888	0.37
530.338	0.37
530.788	0.37
531.238	0.37
531.688	0.37
532.139	0.37
532.589	0.37
533.038	0.37
533.488	0.37
533.938	0.36
534.388	0.36
534.838	0.36
535.288	0.36
535.738	0.36
536.187	0.36
536.637	0.36
537.087	0.35
537.537	0.35
537.986	0.35
538.436	0.35
538.885	0.35
539.335	0.35
539.785	0.34
540.234	0.34
540.684	0.34
541.133	0.34
541.582	0.34
542.032	0.34
542.481	0.33
542.931	0.33
543.38	0.33
543.829	0.33
544.278	0.33
544.728	0.32
545.177	0.32
545.626	0.32
546.075	0.32
546.524	0.31
546.973	0.31
547.422	0.31
547.871	0.31
548.32	0.31
548.769	0.3
549.218	0.3
549.667	0.3
550.116	0.3
550.565	0.29
551.014	0.29
551.463	0.29
551.911	0.29
552.36	0.28
552.809	0.28
553.258	0.28
553.706	0.28
554.155	0.27
554.603	0.27
555.052	0.27
555.501	0.27
555.949	0.26
556.398	0.26
556.846	0.26
557.294	0.26
557.743	0.25
558.191	0.25
558.64	0.25
559.088	0.25
559.536	0.24
559.985	0.24
560.433	0.24
560.881	0.24
561.329	0.23
561.777	0.23
562.225	0.23
562.674	0.23
563.122	0.23
563.57	0.22
564.018	0.22
564.466	0.22
564.914	0.21
565.362	0.21
565.809	0.21
566.257	0.21
566.705	0.2
567.153	0.2
567.601	0.2
568.048	0.2
568.496	0.2
568.944	0.19
569.392	0.19
569.839	0.19
570.287	0.19
570.734	0.19
571.182	0.18
571.63	0.18
572.077	0.18
572.525	0.18
572.972	0.18
573.419	0.17
573.867	0.17
574.314	0.17
574.761	0.17
575.209	0.17
575.656	0.17
576.103	0.16
576.551	0.16
576.998	0.16
577.445	0.16
577.892	0.16
578.339	0.16
578.786	0.16
579.233	0.15
579.68	0.15
580.127	0.15
580.574	0.15
581.021	0.15
581.468	0.15
581.915	0.14
582.362	0.14
582.809	0.14
583.255	0.14
583.702	0.14
584.149	0.13
584.596	0.13
585.042	0.13
585.489	0.13
585.936	0.13
586.382	0.13
586.829	0.13
587.275	0.12
587.722	0.12
588.168	0.12
588.615	0.12
589.061	0.12
589.508	0.12
589.954	0.12
590.4	0.12
590.847	0.12
591.293	0.11
591.739	0.11
592.185	0.11
592.632	0.11
593.078	0.11
593.524	0.11
593.97	0.11
594.416	0.11
594.862	0.11
595.308	0.1
595.754	0.1
596.2	0.1
596.646	0.1
597.092	0.1
597.538	0.1
597.984	0.1
598.43	0.1
598.876	0.1
599.321	0.1
599.767	0.1
600.213	0.1
600.659	0.1
601.104	0.1
601.55	0.1
601.995	0.09
602.441	0.09
602.887	0.09
603.332	0.09
603.778	0.09
604.223	0.09
604.668	0.09
605.114	0.09
605.559	0.09
606.005	0.09
606.45	0.09
606.895	0.09
607.341	0.09
607.786	0.09
608.231	0.09
608.676	0.09
609.121	0.09
609.566	0.09
610.012	0.09
610.457	0.09
610.902	0.09
611.347	0.09
611.792	0.09
612.237	0.09
612.682	0.09
613.127	0.09
613.571	0.09
614.016	0.09
614.461	0.09
614.906	0.09
615.351	0.09
615.795	0.09
616.24	0.09
616.685	0.09
617.129	0.09
617.574	0.09
618.019	0.09
618.463	0.09
618.908	0.09
619.352	0.09
619.797	0.09
620.241	0.09
620.686	0.09
621.13	0.09
621.574	0.09
622.019	0.09
622.463	0.09
622.907	0.09
623.352	0.09
623.796	0.09
624.24	0.09
624.684	0.09
625.128	0.09
625.572	0.09
626.016	0.09
626.461	0.09
626.905	0.09
627.349	0.09
627.793	0.09
628.236	0.09
628.68	0.09
629.124	0.1
629.568	0.1
630.012	0.1
630.456	0.1
630.9	0.1
631.343	0.1
631.787	0.1
632.231	0.1
632.674	0.1
633.118	0.1
633.562	0.11
634.005	0.11
634.449	0.11
634.892	0.11
635.336	0.11
635.779	0.11
636.223	0.12
636.666	0.12
637.109	0.12
637.553	0.12
637.996	0.12
638.439	0.12
638.883	0.13
639.326	0.13
639.769	0.13
640.212	0.13
640.655	0.13
641.099	0.13
641.542	0.14
641.985	0.14
642.428	0.14
642.871	0.14
643.314	0.14
643.757	0.15
644.2	0.15
644.643	0.15
645.085	0.15
645.528	0.16
645.971	0.16
646.414	0.16
646.857	0.16
647.299	0.17
647.742	0.17
648.185	0.17
648.627	0.17
649.07	0.18
649.513	0.18
649.955	0.18
650.398	0.18
650.84	0.19
651.283	0.19
651.725	0.19
652.168	0.19
652.61	0.2
653.052	0.2
653.495	0.21
653.937	0.16
654.379	0.13
654.821	0.13
655.264	0.14
655.706	0.14
656.148	0.14
656.59	0.14
657.032	0.14
657.474	0.15
657.916	0.15
658.358	0.14
658.8	0.18
659.242	0.24
659.684	0.24
660.126	0.25
660.568	0.25
661.01	0.25
661.452	0.25
661.894	0.26
662.335	0.26
662.777	0.26
663.219	0.27
663.661	0.27
664.102	0.27
664.544	0.28
664.985	0.28
665.427	0.28
665.869	0.29
666.31	0.29
666.752	0.29
667.193	0.3
667.634	0.3
668.076	0.3
668.517	0.3
668.959	0.31
669.4	0.31
669.841	0.31
670.282	0.31
670.724	0.31
671.165	0.32
671.606	0.32
672.047	0.32
672.488	0.32
672.929	0.32
673.37	0.32
673.811	0.33
674.252	0.33
674.693	0.33
675.134	0.33
675.575	0.33
676.016	0.33
676.457	0.33
676.898	0.34
677.339	0.34
677.78	0.34
678.22	0.34
678.661	0.34
679.102	0.34
679.542	0.34
679.983	0.35
680.424	0.35
680.864	0.35
681.305	0.35
681.745	0.35
682.186	0.35
682.626	0.35
683.067	0.35
683.507	0.35
683.948	0.35
684.388	0.35
684.828	0.35
685.269	0.35
685.709	0.35
686.149	0.35
686.589	0.35
687.029	0.35
687.47	0.35
687.91	0.35
688.35	0.35
688.79	0.35
689.23	0.35
689.67	0.35
690.11	0.35
690.55	0.35
690.99	0.35
691.43	0.35
691.87	0.34
692.31	0.34
692.749	0.34
693.189	0.34
693.629	0.34
694.069	0.34
694.508	0.34
694.948	0.34
695.388	0.33
695.827	0.33
696.267	0.33
696.706	0.33
697.146	0.33
697.586	0.33
698.025	0.32
698.464	0.32
698.904	0.32
699.343	0.32
699.783	0.32
700.222	0.32
700.661	0.31
701.101	0.31
701.54	0.31
701.979	0.31
702.418	0.31
702.857	0.31
703.297	0.3
703.736	0.3
704.175	0.3
704.614	0.3
705.053	0.29
705.492	0.29
705.931	0.29
706.37	0.29
706.809	0.28
707.248	0.28
707.687	0.28
708.125	0.28
708.564	0.28
709.003	0.27
709.442	0.27
709.88	0.27
710.319	0.27
710.758	0.27
711.196	0.26
711.635	0.26
712.074	0.26
712.512	0.26
712.951	0.25
713.389	0.25
713.828	0.25
714.266	0.25
714.705	0.24
715.143	0.24
715.581	0.24
716.02	0.24
716.458	0.23
716.896	0.23
717.334	0.23
717.773	0.23
718.211	0.22
718.649	0.22
719.087	0.22
719.525	0.22
719.963	0.21
720.401	0.21
720.839	0.21
721.277	0.21
721.715	0.21
722.153	0.2
722.591	0.2
723.029	0.2
723.467	0.2
723.905	0.2
724.342	0.19
724.78	0.19
725.218	0.19
725.656	0.19
726.093	0.19
726.531	0.18
726.969	0.18
727.406	0.18
727.844	0.18
728.281	0.18
728.719	0.17
729.156	0.17
729.594	0.17
730.031	0.17
730.469	0.17
730.906	0.17
731.343	0.16
731.781	0.16
732.218	0.16
732.655	0.16
733.092	0.16
733.53	0.16
733.967	0.15
734.404	0.15
734.841	0.15
735.278	0.15
735.715	0.15
736.152	0.14
736.589	0.14
737.026	0.14
737.463	0.14
737.9	0.14
738.337	0.13
738.774	0.13
739.211	0.13
739.647	0.13
740.084	0.13
740.521	0.12
740.958	0.12
741.394	0.12
741.831	0.12
742.268	0.12
742.704	0.12
743.141	0.12
743.577	0.11
744.014	0.11
744.45	0.11
744.887	0.11
745.323	0.11
745.76	0.11
746.196	0.1
746.632	0.1
747.069	0.1
747.505	0.1
747.941	0.1
748.378	0.1
748.814	0.1
749.25	0.09
749.686	0.09
750.122	0.09
750.558	0.09
750.994	0.09
751.43	0.09
751.866	0.08
752.302	0.08
752.738	0.08
753.174	0.08
753.61	0.08
754.046	0.07
754.482	0.07
754.918	0.07
755.354	0.07
755.789	0.07
756.225	0.07
756.661	0.06
757.096	0.06
757.532	0.06
757.968	0.06
758.403	0.06
758.839	0.06
759.274	0.06
759.71	0.06
760.145	0.06
760.581	0.06
761.016	0.06
761.452	0.05
761.887	0.05
762.322	0.05
762.758	0.05
763.193	0.05
763.628	0.05
764.063	0.05
764.499	0.04
764.934	0.04
765.369	0.04
765.804	0.04
766.239	0.04
766.674	0.04
767.109	0.03
767.544	0.03
767.979	0.03
768.414	0.03
768.849	0.03
769.284	0.03
769.719	0.02
770.154	0.02
770.588	0.02
771.023	0.02
771.458	0.02
771.893	0.01
772.327	0.01
772.762	0.01
773.197	0.01
773.631	0
774.066	-0
774.5	-0
774.935	-0.01
775.369	-0.01
775.804	-0.01
776.238	-0.02
776.673	-0.02
777.107	-0.02
777.541	-0.02
777.976	-0.03
778.41	-0.03
778.844	-0.03
779.279	-0.04
779.713	-0.04
780.147	-0.04
780.581	-0.04
781.015	-0.05
781.449	-0.05
781.883	-0.06
782.317	-0.06
782.751	-0.06
783.185	-0.07
783.619	-0.07
784.053	-0.08
784.487	-0.08
784.921	-0.09
785.355	-0.09
785.789	-0.09
786.223	-0.1
786.656	-0.1
787.09	-0.1
787.524	-0.1
787.957	-0.11
788.391	-0.11
788.825	-0.12
789.258	-0.12
789.692	-0.12
790.125	-0.12
790.559	-0.13
790.992	-0.13
791.426	-0.13
791.859	-0.13
792.293	-0.12
792.726	-0.11
793.159	-0.1
793.593	-0.1
794.026	-0.1
794.459	-0.11
794.892	-0.11
795.326	-0.11
795.759	-0.11
796.192	-0.11
796.625	-0.12
797.058	-0.13
797.491	-0.14
797.924	-0.15
798.357	-0.15
798.79	-0.15
799.223	-0.15
799.656	-0.15
800.089	-0.15
800.522	-0.15
800.955	-0.16
801.387	-0.15
801.82	-0.16
802.253	-0.16
802.686	-0.16
803.118	-0.16
803.551	-0.16
803.984	-0.15
804.416	-0.15
804.849	-0.14
805.281	-0.14
805.714	-0.14
806.146	-0.14
806.579	-0.13
807.011	-0.13
807.444	-0.13
807.876	-0.13
808.308	-0.13
808.741	-0.14
809.173	-0.14
809.605	-0.15
810.037	-0.15
810.47	-0.15
810.902	-0.16
811.334	-0.16
811.766	-0.16
812.198	-0.15
812.63	-0.15
813.062	-0.15
813.494	-0.15
813.926	-0.15
814.358	-0.15
814.79	-0.15
815.222	-0.14
815.654	-0.13
816.086	-0.13
816.518	-0.13
816.949	-0.13
817.381	-0.12
817.813	-0.11
818.245	-0.1
818.676	-0.1
819.108	-0.09
819.54	-0.08
819.971	-0.08
820.403	-0.07
820.834	-0.07
821.266	-0.06
821.697	-0.06
822.129	-0.06
822.56	-0.05
822.991	-0.05
823.423	-0.05
823.854	-0.05
824.286	-0.04
824.717	-0.04
825.148	-0.04
825.579	-0.04
826.01	-0.04
826.442	-0.03
826.873	-0.03
827.304	-0.03
827.735	-0.03
828.166	-0.03
828.597	-0.03
829.028	-0.03
829.459	-0.02
829.89	-0.02
830.321	-0.02
830.752	-0.02
831.183	-0.02
831.613	-0.02
832.044	-0.02
832.475	-0.02
832.906	-0.02
833.336	-0.02
833.767	-0.02
834.198	-0.02
834.628	-0.02
835.059	-0.02
835.49	-0.02
835.92	-0.02
836.351	-0.02
836.781	-0.02
837.212	-0.02
837.642	-0.02
838.072	-0.02
838.503	-0.02
838.933	-0.02
839.364	-0.02
839.794	-0.02
840.224	-0.02
840.654	-0.02
841.085	-0.02
841.515	-0.02
841.945	-0.02
842.375	-0.02
842.805	-0.02
843.235	-0.02
843.665	-0.02
844.095	-0.02
844.525	-0.02
844.955	-0.02
845.385	-0.02
845.815	-0.02
846.245	-0.02
846.675	-0.02
847.105	-0.02
847.534	-0.02
847.964	-0.02
848.394	-0.02
848.824	-0.02
849.253	-0.02
849.683	-0.02
850.112	-0.02
850.542	-0.02
850.972	-0.02
851.401	-0.02
851.831	-0.02
852.26	-0.02
852.69	-0.02
853.119	-0.02
853.548	-0.02
853.978	-0.02
854.407	-0.02
854.836	-0.02
855.266	-0.02
855.695	-0.02
856.124	-0.02
856.553	-0.02
856.983	-0.02
857.412	-0.02
857.841	-0.02
858.27	-0.02
858.699	-0.02
859.128	-0.02
859.557	-0.02
859.986	-0.02
860.415	-0.02
860.844	-0.02
861.273	-0.02
861.702	-0.02
862.13	-0.02
862.559	-0.02
862.988	-0.02
863.417	-0.02
863.845	-0.02
864.274	-0.02
864.703	-0.02
865.131	-0.02
865.56	-0.02
865.989	-0.02
866.417	-0.02
866.846	-0.02
867.274	-0.02
867.703	-0.02
868.131	-0.02
868.559	-0.02
868.988	-0.02
869.416	-0.02
869.844	-0.02
870.273	-0.02
870.701	-0.02
871.129	-0.02
871.557	-0.02
871.986	-0.02
872.414	-0.02
872.842	-0.02
873.27	-0.02
873.698	-0.02
874.126	-0.02
874.554	-0.03
874.982	-0.03
875.41	-0.03
875.838	-0.03
876.266	-0.03
876.694	-0.03
877.122	-0.03
877.549	-0.03
877.977	-0.03
878.405	-0.03
878.833	-0.03
879.26	-0.03
879.688	-0.03
880.116	-0.03
880.543	-0.03
880.971	-0.03
881.399	-0.03
881.826	-0.03
882.254	-0.03
882.681	-0.03
883.109	-0.03
883.536	-0.03
883.963	-0.03
884.391	-0.03
884.818	-0.03
885.245	-0.03
885.673	-0.03
886.1	-0.03
886.527	-0.03
886.954	-0.03
887.381	-0.03
887.809	-0.03
888.236	-0.03
888.663	-0.03
889.09	-0.03
889.517	-0.03
889.944	-0.03
890.371	-0.03
890.798	-0.03
891.225	-0.03
891.652	-0.03
892.078	-0.03
892.505	-0.03
892.932	-0.03
893.359	-0.03
893.786	-0.03
894.212	-0.02
894.639	-0.02
895.066	-0.02
895.492	-0.02
895.919	-0.03
896.346	-0.03
896.772	-0.03
897.199	-0.03
897.625	-0.03
898.052	-0.03
898.478	-0.03
898.904	-0.03
899.331	-0.03
899.757	-0.03
900.183	-0.03
900.61	-0.04
901.036	-0.04
901.462	-0.04
901.888	-0.04
902.315	-0.04
902.741	-0.04
903.167	-0.04
903.593	-0.03
904.019	-0.03
904.445	-0.03
904.871	-0.03
905.297	-0.03
905.723	-0.03
906.149	-0.03
906.575	-0.03
907.001	-0.03
907.427	-0.03
907.852	-0.03
908.278	-0.03
908.704	-0.03
909.13	-0.03
909.555	-0.03
909.981	-0.03
910.407	-0.03
910.832	-0.03
911.258	-0.03
911.684	-0.03
912.109	-0.03
912.535	-0.03
912.96	-0.03
913.386	-0.03
913.811	-0.03
914.236	-0.03
914.662	-0.02
915.087	-0.02
915.512	-0.02
915.938	-0.02
916.363	-0.02
916.788	-0.02
917.213	-0.02
917.639	-0.02
918.064	-0.02
918.489	-0.02
918.914	-0.02
919.339	-0.02
919.764	-0.02
920.189	-0.02
920.614	-0.02
921.039	-0.02
921.464	-0.02
921.889	-0.02
922.314	-0.02
922.738	-0.02
923.163	-0.02
923.588	-0.02
924.013	-0.02
924.437	-0.02
924.862	-0.02
925.287	-0.02
925.711	-0.02
926.136	-0.02
926.561	-0.02
926.985	-0.02
927.41	-0.02
927.834	-0.02
928.259	-0.02
928.683	-0.02
929.108	-0.03
929.532	-0.03
929.956	-0.03
930.381	-0.03
930.805	-0.03
931.229	-0.03
931.653	-0.03
932.078	-0.03
932.502	-0.03
932.926	-0.03
933.35	-0.03
933.774	-0.03
934.198	-0.03
934.622	-0.03
935.046	-0.03
935.47	-0.03
935.894	-0.03
936.318	-0.03
936.742	-0.03
937.166	-0.03
937.59	-0.03
938.014	-0.03
938.437	-0.03
938.861	-0.03
939.285	-0.03
939.709	-0.03
940.132	-0.03
940.556	-0.03
940.98	-0.03
941.403	-0.03
941.827	-0.03
942.25	-0.03
942.674	-0.03
943.097	-0.03
943.521	-0.03
943.944	-0.03
944.368	-0.03
944.791	-0.03
945.214	-0.03
945.638	-0.03
946.061	-0.03
946.484	-0.03
946.907	-0.03
947.331	-0.03
947.754	-0.03
948.177	-0.03
948.6	-0.03
949.023	-0.03
949.446	-0.03
949.869	-0.03
950.292	-0.03
950.715	-0.03
951.138	-0.03
951.561	-0.03
951.984	-0.03
952.407	-0.03
952.83	-0.03
953.252	-0.03
953.675	-0.03
954.098	-0.03
954.521	-0.03
954.943	-0.03
955.366	-0.03
955.789	-0.03
956.211	-0.03
956.634	-0.03
957.056	-0.03
957.479	-0.03
957.902	-0.03
958.324	-0.03
958.746	-0.03
959.169	-0.03
959.591	-0.03
960.014	-0.03
960.436	-0.03
960.858	-0.03
961.281	-0.03
961.703	-0.03
962.125	-0.03
962.547	-0.03
962.969	-0.03
963.391	-0.03
963.814	-0.03
964.236	-0.03
964.658	-0.03
965.08	-0.03
965.502	-0.03
965.924	-0.03
966.346	-0.03
966.768	-0.03
967.189	-0.03
967.611	-0.03
968.033	-0.03
968.455	-0.03
968.877	-0.03
969.298	-0.03
969.72	-0.03
970.142	-0.03
970.563	-0.03
970.985	-0.03
971.407	-0.03
971.828	-0.03
972.25	-0.03
972.671	-0.03
973.093	-0.03
973.514	-0.03
973.936	-0.03
974.357	-0.03
974.778	-0.03
975.2	-0.03
975.621	-0.03
976.042	-0.03
976.464	-0.03
976.885	-0.03
977.306	-0.03
977.727	-0.03
978.148	-0.03
978.57	-0.03
978.991	-0.02
979.412	-0.02
979.833	-0.02
980.254	-0.02
980.675	-0.02
981.096	-0.02
981.517	-0.02
981.937	-0.02
982.358	-0.02
982.779	-0.02
983.2	-0.02
983.621	-0.02
984.042	-0.02
984.462	-0.03
984.883	-0.03
985.304	-0.03
985.724	-0.03
986.145	-0.03
986.565	-0.03
986.986	-0.03
987.407	-0.03
987.827	-0.03
988.248	-0.02
988.668	-0.02
989.088	-0.02
989.509	-0.02
989.929	-0.02
990.35	-0.02
990.77	-0.02
991.19	-0.02
991.61	-0.02
992.031	-0.02
992.451	-0.02
992.871	-0.02
993.291	-0.02
993.711	-0.02
994.131	-0.02
994.551	-0.02
994.971	-0.02
995.391	-0.02
995.811	-0.02
996.231	-0.02
996.651	-0.02
997.071	-0.02
997.491	-0.02
997.911	-0.02
998.331	-0.02
998.75	-0.02
999.17	-0.02
999.59	-0.02
1000.009	-0.02
1000.429	-0.02
1000.849	-0.02
1001.268	-0.02
1001.688	-0.03
1002.107	-0.03
1002.527	-0.03
1002.946	-0.03
1003.366	-0.03
1003.785	-0.03
1004.205	-0.03
1004.624	-0.03
1005.044	-0.03
1005.463	-0.03
1005.882	-0.03
1006.301	-0.03
1006.721	-0.03
1007.14	-0.03
1007.559	-0.03
1007.978	-0.03
1008.397	-0.03
1008.816	-0.04
1009.235	-0.04
1009.655	-0.04
1010.074	-0.04
1010.492	-0.04
1010.911	-0.04
1011.33	-0.04
1011.749	-0.04
1012.168	-0.04
1012.587	-0.04
1013.006	-0.04
1013.425	-0.04
1013.843	-0.04
1014.262	-0.04
1014.681	-0.04
1015.099	-0.03
1015.518	-0.03
1015.937	-0.03
1016.355	-0.03
1016.774	-0.03
1017.192	-0.03
1017.611	-0.03
1018.029	-0.03
1018.448	-0.03
1018.866	-0.03
1019.285	-0.03
1019.703	-0.03
1020.121	-0.03
1020.54	-0.03
1020.958	-0.03
1021.376	-0.03
1021.794	-0.03
1022.213	-0.03
1022.631	-0.03
1023.049	-0.03
1023.467	-0.03
1023.885	-0.03
1024.303	-0.03
1024.721	-0.03
1025.139	-0.03
1025.557	-0.03
1025.975	-0.03
1026.393	-0.03
1026.811	-0.03
1027.229	-0.03
1027.647	-0.03
1028.065	-0.03
1028.482	-0.03
1028.9	-0.03
1029.318	-0.03
1029.735	-0.03
1030.153	-0.03
1030.571	-0.03
1030.988	-0.03
1031.406	-0.03
1031.823	-0.03
1032.241	-0.03
1032.659	-0.03
1033.076	-0.03
1033.493	-0.03
1033.911	-0.03
1034.328	-0.03
1034.746	-0.03
1035.163	-0.03
1035.58	-0.03
1035.997	-0.03
1036.415	-0.03
1036.832	-0.03
1037.249	-0.03
1037.666	-0.03
1038.083	-0.03
1038.501	-0.03
1038.918	-0.03
1039.335	-0.03
1039.752	-0.03
1040.169	-0.03
1040.586	-0.03
1041.003	-0.03
1041.419	-0.03
1041.836	-0.03
1042.253	-0.03
1042.67	-0.03
1043.087	-0.03
1043.504	-0.03
1043.92	-0.03
1044.337	-0.03
1044.754	-0.03
1045.17	-0.03
1045.587	-0.03
1046.004	-0.03
1046.42	-0.03
1046.837	-0.03
1047.253	-0.03
1047.67	-0.03
1048.086	-0.03
1048.503	-0.03
1048.919	-0.03
1049.335	-0.03
1049.752	-0.03
1050.168	-0.02
1050.584	-0.02
1051.001	-0.02
1051.417	-0.02
1051.833	-0.02
1052.249	-0.02
1052.665	-0.02
1053.081	-0.02
1053.497	-0.02
1053.914	-0.02
1054.33	-0.02
1054.746	-0.02
1055.162	-0.02
1055.578	-0.02
1055.993	-0.03
1056.409	-0.03
1056.825	-0.03
1057.241	-0.03
1057.657	-0.03
1058.073	-0.03
1058.488	-0.03
1058.904	-0.03
1059.32	-0.03
1059.736	-0.03
1060.151	-0.03
1060.567	-0.03
1060.982	-0.03
1061.398	-0.03
1061.813	-0.03
1062.229	-0.03
1062.644	-0.03
1063.06	-0.03
1063.475	-0.03
1063.891	-0.03
1064.306	-0.03
1064.721	-0.03
1065.137	-0.03
1065.552	-0.03
1065.967	-0.03
1066.382	-0.03
1066.798	-0.04
1067.213	-0.04
1067.628	-0.03
1068.043	-0.03
1068.458	-0.03
1068.873	-0.03
1069.288	-0.03
1069.703	-0.03
1070.118	-0.03
1070.533	-0.03
1070.948	-0.03
1071.363	-0.03
1071.778	-0.03
1072.193	-0.04
1072.607	-0.04
1073.022	-0.04
1073.437	-0.04
1073.852	-0.04
1074.266	-0.04
1074.681	-0.04
1075.096	-0.04
1075.51	-0.04
1075.925	-0.04
1076.339	-0.04
1076.754	-0.04
1077.168	-0.04
1077.583	-0.04
1077.997	-0.04
1078.412	-0.04
1078.826	-0.04
1079.24	-0.04
1079.655	-0.04
1080.069	-0.04
1080.483	-0.04
1080.897	-0.04
1081.312	-0.04
1081.726	-0.04
1082.14	-0.04
1082.554	-0.04
1082.968	-0.04
1083.382	-0.04
1083.796	-0.04
1084.21	-0.04
1084.624	-0.04
1085.038	-0.04
1085.452	-0.04
1085.866	-0.04
1086.28	-0.04
1086.694	-0.04
1087.108	-0.04
1087.521	-0.04
1087.935	-0.04
1088.349	-0.04
1088.763	-0.04
1089.176	-0.04
1089.59	-0.04
1090.004	-0.04
1090.417	-0.04
1090.831	-0.04
1091.244	-0.04
1091.658	-0.04
1092.071	-0.04
1092.485	-0.04
1092.898	-0.05
1093.312	-0.05
1093.725	-0.05
1094.138	-0.05
1094.552	-0.05
1094.965	-0.05
1095.378	-0.05
1095.791	-0.05
1096.205	-0.05
1096.618	-0.05
1097.031	-0.05
1097.444	-0.05
1097.857	-0.05
1098.27	-0.05
1098.683	-0.05
1099.096	-0.05
1099.509	-0.05
1099.922	-0.05
1100.335	-0.06
1100.748	-0.06
1101.161	-0.06
1101.574	-0.06
1101.986	-0.06
1102.399	-0.06
1102.812	-0.06
1103.225	-0.06
1103.637	-0.06
1104.05	-0.06
1104.463	-0.06
1104.875	-0.06
1105.288	-0.06
1105.7	-0.07
1106.113	-0.07
1106.525	-0.07
1106.938	-0.07
1107.35	-0.07
1107.763	-0.07
1108.175	-0.07
1108.588	-0.08
1109	-0.08
1109.412	-0.08
1109.824	-0.08
1110.237	-0.08
1110.649	-0.08
1111.061	-0.08
