Data from 2024-02-06-100ns-20nr-25nacl-100h2o-7bp2-1_8a808-40to10hyt-0_5cpm_Absorbance__87__00476.txt Node

Date: Tue Feb 06 16:07:49 CET 2024
User: Laser008
Spectrometer: MAYP115816
Trigger mode: 0
Integration Time (sec): 2.000000E-1
Scans to average: 10
Electric dark correction enabled: true
Nonlinearity correction enabled: true
Boxcar width: 5
XAxis mode: Wavelengths
Number of Pixels in Spectrum: 2068
>>>>>Begin Spectral Data<<<<<
198.914	-0.29
199.384	-0.26
199.855	-0.19
200.325	-0.16
200.796	-0.13
201.266	-0.12
201.737	-0.11
202.207	-0.1
202.677	-0.09
203.147	-0.09
203.618	-0.08
204.088	-0.06
204.558	-0.06
205.028	-0.05
205.498	-0.05
205.968	-0.05
206.439	-0.06
206.909	-0.05
207.379	-0.05
207.849	-0.06
208.319	-0.05
208.789	-0.05
209.258	-0.06
209.728	-0.05
210.198	-0.05
210.668	-0.06
211.138	-0.06
211.608	-0.06
212.077	-0.06
212.547	-0.06
213.017	-0.06
213.486	-0.06
213.956	-0.06
214.426	-0.06
214.895	-0.06
215.365	-0.06
215.834	-0.06
216.304	-0.05
216.773	-0.05
217.243	-0.05
217.712	-0.05
218.181	-0.05
218.651	-0.04
219.12	-0.04
219.589	-0.04
220.058	-0.04
220.528	-0.04
220.997	-0.03
221.466	-0.03
221.935	-0.03
222.404	-0.03
222.873	-0.02
223.342	-0.02
223.812	-0.02
224.281	-0.01
224.749	-0.01
225.218	-0
225.687	0
226.156	0.01
226.625	0.02
227.094	0.03
227.563	0.04
228.031	0.05
228.5	0.07
228.969	0.08
229.438	0.1
229.906	0.12
230.375	0.13
230.844	0.16
231.312	0.18
231.781	0.2
232.249	0.22
232.718	0.24
233.186	0.26
233.655	0.28
234.123	0.3
234.591	0.32
235.06	0.33
235.528	0.35
235.996	0.36
236.465	0.37
236.933	0.38
237.401	0.39
237.869	0.4
238.337	0.41
238.805	0.42
239.274	0.42
239.742	0.43
240.21	0.43
240.678	0.44
241.146	0.44
241.614	0.44
242.081	0.45
242.549	0.45
243.017	0.45
243.485	0.45
243.953	0.46
244.421	0.46
244.888	0.46
245.356	0.46
245.824	0.46
246.291	0.47
246.759	0.47
247.227	0.47
247.694	0.47
248.162	0.47
248.629	0.48
249.097	0.48
249.564	0.48
250.032	0.48
250.499	0.48
250.967	0.48
251.434	0.49
251.901	0.49
252.369	0.49
252.836	0.49
253.303	0.49
253.77	0.49
254.237	0.49
254.705	0.49
255.172	0.5
255.639	0.5
256.106	0.5
256.573	0.5
257.04	0.5
257.507	0.5
257.974	0.5
258.441	0.5
258.908	0.5
259.375	0.5
259.841	0.5
260.308	0.5
260.775	0.5
261.242	0.5
261.709	0.5
262.175	0.5
262.642	0.49
263.109	0.49
263.575	0.49
264.042	0.49
264.508	0.49
264.975	0.49
265.441	0.49
265.908	0.49
266.374	0.49
266.841	0.48
267.307	0.48
267.773	0.48
268.24	0.48
268.706	0.48
269.172	0.47
269.639	0.47
270.105	0.47
270.571	0.47
271.037	0.46
271.503	0.46
271.969	0.46
272.435	0.46
272.902	0.45
273.368	0.45
273.834	0.45
274.3	0.45
274.765	0.44
275.231	0.44
275.697	0.44
276.163	0.43
276.629	0.43
277.095	0.43
277.56	0.43
278.026	0.42
278.492	0.42
278.958	0.42
279.423	0.41
279.889	0.41
280.354	0.41
280.82	0.4
281.286	0.4
281.751	0.4
282.217	0.39
282.682	0.39
283.147	0.39
283.613	0.38
284.078	0.38
284.544	0.38
285.009	0.38
285.474	0.37
285.939	0.37
286.405	0.37
286.87	0.37
287.335	0.37
287.8	0.36
288.265	0.36
288.73	0.36
289.195	0.36
289.66	0.35
290.125	0.35
290.59	0.35
291.055	0.35
291.52	0.35
291.985	0.34
292.45	0.34
292.915	0.34
293.38	0.34
293.844	0.34
294.309	0.34
294.774	0.33
295.239	0.33
295.703	0.33
296.168	0.33
296.632	0.33
297.097	0.33
297.562	0.33
298.026	0.32
298.491	0.32
298.955	0.32
299.419	0.32
299.884	0.32
300.348	0.32
300.813	0.32
301.277	0.32
301.741	0.32
302.205	0.31
302.67	0.31
303.134	0.31
303.598	0.31
304.062	0.31
304.526	0.31
304.99	0.31
305.454	0.31
305.919	0.31
306.383	0.31
306.847	0.31
307.31	0.3
307.774	0.3
308.238	0.3
308.702	0.3
309.166	0.3
309.63	0.3
310.094	0.3
310.557	0.3
311.021	0.3
311.485	0.3
311.948	0.3
312.412	0.3
312.876	0.29
313.339	0.29
313.803	0.29
314.266	0.29
314.73	0.29
315.193	0.29
315.657	0.29
316.12	0.29
316.584	0.29
317.047	0.29
317.51	0.29
317.973	0.29
318.437	0.28
318.9	0.28
319.363	0.28
319.826	0.28
320.29	0.28
320.753	0.28
321.216	0.28
321.679	0.28
322.142	0.28
322.605	0.28
323.068	0.28
323.531	0.28
323.994	0.28
324.457	0.28
324.92	0.27
325.382	0.27
325.845	0.27
326.308	0.27
326.771	0.27
327.233	0.27
327.696	0.27
328.159	0.27
328.622	0.27
329.084	0.27
329.547	0.27
330.009	0.27
330.472	0.27
330.934	0.27
331.397	0.27
331.859	0.26
332.322	0.26
332.784	0.26
333.246	0.26
333.709	0.26
334.171	0.26
334.633	0.26
335.096	0.26
335.558	0.26
336.02	0.26
336.482	0.26
336.944	0.26
337.406	0.26
337.868	0.26
338.331	0.26
338.793	0.26
339.255	0.26
339.717	0.25
340.178	0.25
340.64	0.25
341.102	0.25
341.564	0.25
342.026	0.25
342.488	0.25
342.949	0.25
343.411	0.25
343.873	0.25
344.335	0.25
344.796	0.25
345.258	0.25
345.719	0.25
346.181	0.25
346.643	0.25
347.104	0.25
347.566	0.25
348.027	0.25
348.488	0.25
348.95	0.25
349.411	0.25
349.873	0.25
350.334	0.25
350.795	0.25
351.256	0.25
351.718	0.25
352.179	0.25
352.64	0.25
353.101	0.25
353.562	0.25
354.023	0.25
354.484	0.25
354.945	0.24
355.406	0.24
355.867	0.24
356.328	0.24
356.789	0.24
357.25	0.24
357.711	0.24
358.172	0.24
358.633	0.24
359.093	0.24
359.554	0.24
360.015	0.24
360.476	0.24
360.936	0.24
361.397	0.24
361.858	0.24
362.318	0.24
362.779	0.24
363.239	0.24
363.7	0.24
364.16	0.24
364.621	0.24
365.081	0.24
365.541	0.24
366.002	0.24
366.462	0.24
366.922	0.24
367.383	0.24
367.843	0.24
368.303	0.24
368.763	0.24
369.223	0.24
369.684	0.24
370.144	0.24
370.604	0.24
371.064	0.24
371.524	0.24
371.984	0.24
372.444	0.24
372.904	0.24
373.363	0.24
373.823	0.24
374.283	0.24
374.743	0.24
375.203	0.24
375.663	0.24
376.122	0.24
376.582	0.24
377.042	0.24
377.501	0.24
377.961	0.23
378.42	0.23
378.88	0.23
379.34	0.23
379.799	0.23
380.259	0.23
380.718	0.23
381.177	0.23
381.637	0.23
382.096	0.23
382.555	0.23
383.015	0.23
383.474	0.23
383.933	0.23
384.393	0.23
384.852	0.23
385.311	0.23
385.77	0.23
386.229	0.23
386.688	0.23
387.147	0.23
387.606	0.23
388.065	0.23
388.524	0.23
388.983	0.23
389.442	0.23
389.901	0.23
390.36	0.23
390.819	0.23
391.277	0.23
391.736	0.23
392.195	0.23
392.654	0.23
393.112	0.22
393.571	0.22
394.03	0.22
394.488	0.22
394.947	0.22
395.405	0.22
395.864	0.22
396.322	0.22
396.781	0.22
397.239	0.22
397.698	0.22
398.156	0.22
398.614	0.22
399.073	0.22
399.531	0.22
399.989	0.22
400.447	0.22
400.905	0.22
401.364	0.22
401.822	0.22
402.28	0.22
402.738	0.22
403.196	0.22
403.654	0.22
404.112	0.22
404.57	0.22
405.028	0.22
405.486	0.22
405.944	0.22
406.402	0.22
406.859	0.22
407.317	0.22
407.775	0.22
408.233	0.21
408.691	0.21
409.148	0.21
409.606	0.21
410.064	0.21
410.521	0.21
410.979	0.21
411.436	0.21
411.894	0.21
412.351	0.21
412.809	0.21
413.266	0.21
413.724	0.21
414.181	0.21
414.638	0.21
415.096	0.21
415.553	0.21
416.01	0.21
416.467	0.21
416.925	0.21
417.382	0.21
417.839	0.21
418.296	0.21
418.753	0.21
419.21	0.21
419.667	0.21
420.124	0.21
420.581	0.21
421.038	0.21
421.495	0.21
421.952	0.21
422.409	0.21
422.866	0.21
423.322	0.21
423.779	0.21
424.236	0.21
424.693	0.21
425.149	0.21
425.606	0.21
426.063	0.21
426.519	0.21
426.976	0.21
427.433	0.21
427.889	0.2
428.346	0.2
428.802	0.2
429.258	0.2
429.715	0.2
430.171	0.2
430.628	0.2
431.084	0.2
431.54	0.2
431.997	0.2
432.453	0.2
432.909	0.2
433.365	0.2
433.821	0.2
434.277	0.2
434.734	0.2
435.19	0.2
435.646	0.2
436.102	0.2
436.558	0.2
437.014	0.2
437.47	0.2
437.925	0.2
438.381	0.2
438.837	0.2
439.293	0.2
439.749	0.2
440.205	0.2
440.66	0.2
441.116	0.2
441.572	0.2
442.027	0.2
442.483	0.2
442.939	0.2
443.394	0.2
443.85	0.2
444.305	0.2
444.761	0.2
445.216	0.2
445.672	0.2
446.127	0.2
446.582	0.2
447.038	0.2
447.493	0.2
447.948	0.2
448.403	0.2
448.859	0.2
449.314	0.2
449.769	0.2
450.224	0.2
450.679	0.2
451.134	0.2
451.589	0.2
452.044	0.2
452.499	0.2
452.954	0.2
453.409	0.2
453.864	0.2
454.319	0.2
454.774	0.2
455.229	0.2
455.684	0.2
456.138	0.2
456.593	0.2
457.048	0.2
457.503	0.2
457.957	0.2
458.412	0.2
458.866	0.2
459.321	0.2
459.776	0.2
460.23	0.2
460.685	0.2
461.139	0.2
461.593	0.2
462.048	0.2
462.502	0.2
462.957	0.2
463.411	0.2
463.865	0.2
464.319	0.2
464.774	0.2
465.228	0.2
465.682	0.2
466.136	0.2
466.59	0.2
467.044	0.2
467.499	0.2
467.953	0.2
468.407	0.2
468.861	0.2
469.315	0.2
469.768	0.2
470.222	0.2
470.676	0.2
471.13	0.2
471.584	0.2
472.038	0.2
472.491	0.2
472.945	0.2
473.399	0.2
473.852	0.2
474.306	0.2
474.76	0.2
475.213	0.2
475.667	0.21
476.12	0.21
476.574	0.21
477.027	0.21
477.481	0.21
477.934	0.21
478.388	0.21
478.841	0.21
479.294	0.21
479.748	0.21
480.201	0.21
480.654	0.21
481.107	0.21
481.561	0.21
482.014	0.21
482.467	0.22
482.92	0.22
483.373	0.22
483.826	0.22
484.279	0.22
484.732	0.22
485.185	0.22
485.638	0.22
486.091	0.22
486.544	0.22
486.997	0.22
487.449	0.23
487.902	0.23
488.355	0.23
488.808	0.23
489.26	0.23
489.713	0.23
490.166	0.23
490.618	0.23
491.071	0.23
491.523	0.24
491.976	0.24
492.429	0.24
492.881	0.24
493.333	0.24
493.786	0.24
494.238	0.25
494.691	0.25
495.143	0.25
495.595	0.25
496.048	0.25
496.5	0.25
496.952	0.26
497.404	0.26
497.856	0.26
498.309	0.26
498.761	0.26
499.213	0.26
499.665	0.27
500.117	0.27
500.569	0.27
501.021	0.27
501.473	0.27
501.925	0.28
502.377	0.28
502.828	0.28
503.28	0.28
503.732	0.28
504.184	0.29
504.636	0.29
505.087	0.29
505.539	0.29
505.991	0.29
506.442	0.29
506.894	0.3
507.345	0.3
507.797	0.3
508.249	0.3
508.7	0.3
509.151	0.31
509.603	0.31
510.054	0.31
510.506	0.31
510.957	0.31
511.408	0.31
511.86	0.31
512.311	0.32
512.762	0.32
513.213	0.32
513.665	0.32
514.116	0.32
514.567	0.32
515.018	0.32
515.469	0.32
515.92	0.33
516.371	0.33
516.822	0.33
517.273	0.33
517.724	0.33
518.175	0.33
518.626	0.33
519.076	0.33
519.527	0.33
519.978	0.33
520.429	0.33
520.88	0.34
521.33	0.34
521.781	0.34
522.232	0.34
522.682	0.34
523.133	0.34
523.583	0.34
524.034	0.34
524.484	0.34
524.935	0.34
525.385	0.34
525.836	0.34
526.286	0.34
526.736	0.34
527.187	0.34
527.637	0.34
528.087	0.34
528.538	0.34
528.988	0.34
529.438	0.33
529.888	0.33
530.338	0.33
530.788	0.33
531.238	0.33
531.688	0.33
532.139	0.33
532.589	0.33
533.038	0.33
533.488	0.33
533.938	0.33
534.388	0.32
534.838	0.32
535.288	0.32
535.738	0.32
536.187	0.32
536.637	0.32
537.087	0.32
537.537	0.31
537.986	0.31
538.436	0.31
538.885	0.31
539.335	0.31
539.785	0.31
540.234	0.3
540.684	0.3
541.133	0.3
541.582	0.3
542.032	0.3
542.481	0.29
542.931	0.29
543.38	0.29
543.829	0.29
544.278	0.29
544.728	0.29
545.177	0.28
545.626	0.28
546.075	0.28
546.524	0.28
546.973	0.27
547.422	0.27
547.871	0.27
548.32	0.27
548.769	0.27
549.218	0.26
549.667	0.26
550.116	0.26
550.565	0.26
551.014	0.25
551.463	0.25
551.911	0.25
552.36	0.25
552.809	0.25
553.258	0.24
553.706	0.24
554.155	0.24
554.603	0.24
555.052	0.24
555.501	0.23
555.949	0.23
556.398	0.23
556.846	0.23
557.294	0.23
557.743	0.22
558.191	0.22
558.64	0.22
559.088	0.22
559.536	0.21
559.985	0.21
560.433	0.21
560.881	0.21
561.329	0.21
561.777	0.21
562.225	0.2
562.674	0.2
563.122	0.2
563.57	0.2
564.018	0.2
564.466	0.19
564.914	0.19
565.362	0.19
565.809	0.19
566.257	0.19
566.705	0.19
567.153	0.18
567.601	0.18
568.048	0.18
568.496	0.18
568.944	0.18
569.392	0.18
569.839	0.17
570.287	0.17
570.734	0.17
571.182	0.17
571.63	0.17
572.077	0.17
572.525	0.16
572.972	0.16
573.419	0.16
573.867	0.16
574.314	0.16
574.761	0.16
575.209	0.16
575.656	0.16
576.103	0.15
576.551	0.15
576.998	0.15
577.445	0.15
577.892	0.15
578.339	0.15
578.786	0.15
579.233	0.15
579.68	0.15
580.127	0.14
580.574	0.14
581.021	0.14
581.468	0.14
581.915	0.14
582.362	0.14
582.809	0.14
583.255	0.14
583.702	0.13
584.149	0.13
584.596	0.13
585.042	0.13
585.489	0.13
585.936	0.13
586.382	0.13
586.829	0.13
587.275	0.12
587.722	0.12
588.168	0.12
588.615	0.12
589.061	0.12
589.508	0.12
589.954	0.12
590.4	0.12
590.847	0.12
591.293	0.12
591.739	0.12
592.185	0.12
592.632	0.12
593.078	0.11
593.524	0.11
593.97	0.11
594.416	0.11
594.862	0.11
595.308	0.11
595.754	0.11
596.2	0.11
596.646	0.11
597.092	0.11
597.538	0.11
597.984	0.11
598.43	0.11
598.876	0.11
599.321	0.1
599.767	0.1
600.213	0.1
600.659	0.1
601.104	0.1
601.55	0.1
601.995	0.1
602.441	0.1
602.887	0.1
603.332	0.1
603.778	0.1
604.223	0.1
604.668	0.1
605.114	0.1
605.559	0.1
606.005	0.1
606.45	0.1
606.895	0.1
607.341	0.1
607.786	0.1
608.231	0.1
608.676	0.1
609.121	0.1
609.566	0.1
610.012	0.1
610.457	0.1
610.902	0.1
611.347	0.1
611.792	0.1
612.237	0.1
612.682	0.1
613.127	0.1
613.571	0.1
614.016	0.1
614.461	0.1
614.906	0.1
615.351	0.1
615.795	0.1
616.24	0.1
616.685	0.09
617.129	0.09
617.574	0.09
618.019	0.09
618.463	0.09
618.908	0.09
619.352	0.09
619.797	0.1
620.241	0.1
620.686	0.1
621.13	0.1
621.574	0.1
622.019	0.1
622.463	0.1
622.907	0.1
623.352	0.1
623.796	0.1
624.24	0.1
624.684	0.1
625.128	0.1
625.572	0.1
626.016	0.1
626.461	0.1
626.905	0.1
627.349	0.1
627.793	0.1
628.236	0.1
628.68	0.1
629.124	0.1
629.568	0.1
630.012	0.1
630.456	0.1
630.9	0.1
631.343	0.1
631.787	0.11
632.231	0.11
632.674	0.11
633.118	0.11
633.562	0.11
634.005	0.11
634.449	0.11
634.892	0.12
635.336	0.12
635.779	0.12
636.223	0.12
636.666	0.12
637.109	0.12
637.553	0.12
637.996	0.13
638.439	0.13
638.883	0.13
639.326	0.13
639.769	0.13
640.212	0.13
640.655	0.13
641.099	0.13
641.542	0.14
641.985	0.14
642.428	0.14
642.871	0.14
643.314	0.14
643.757	0.15
644.2	0.15
644.643	0.15
645.085	0.15
645.528	0.15
645.971	0.16
646.414	0.16
646.857	0.16
647.299	0.16
647.742	0.16
648.185	0.17
648.627	0.17
649.07	0.17
649.513	0.17
649.955	0.18
650.398	0.18
650.84	0.18
651.283	0.19
651.725	0.19
652.168	0.19
652.61	0.19
653.052	0.2
653.495	0.2
653.937	0.16
654.379	0.13
654.821	0.13
655.264	0.13
655.706	0.14
656.148	0.14
656.59	0.14
657.032	0.14
657.474	0.14
657.916	0.14
658.358	0.14
658.8	0.17
659.242	0.23
659.684	0.24
660.126	0.24
660.568	0.24
661.01	0.25
661.452	0.25
661.894	0.25
662.335	0.26
662.777	0.26
663.219	0.27
663.661	0.27
664.102	0.27
664.544	0.27
664.985	0.28
665.427	0.28
665.869	0.28
666.31	0.28
666.752	0.29
667.193	0.29
667.634	0.29
668.076	0.29
668.517	0.29
668.959	0.3
669.4	0.3
669.841	0.3
670.282	0.3
670.724	0.31
671.165	0.31
671.606	0.31
672.047	0.31
672.488	0.31
672.929	0.31
673.37	0.32
673.811	0.32
674.252	0.32
674.693	0.32
675.134	0.32
675.575	0.33
676.016	0.33
676.457	0.33
676.898	0.33
677.339	0.33
677.78	0.33
678.22	0.33
678.661	0.33
679.102	0.33
679.542	0.34
679.983	0.34
680.424	0.34
680.864	0.34
681.305	0.34
681.745	0.34
682.186	0.34
682.626	0.34
683.067	0.34
683.507	0.34
683.948	0.34
684.388	0.34
684.828	0.34
685.269	0.35
685.709	0.35
686.149	0.35
686.589	0.35
687.029	0.35
687.47	0.35
687.91	0.35
688.35	0.35
688.79	0.35
689.23	0.35
689.67	0.35
690.11	0.34
690.55	0.34
690.99	0.34
691.43	0.34
691.87	0.34
692.31	0.34
692.749	0.34
693.189	0.34
693.629	0.34
694.069	0.34
694.508	0.33
694.948	0.33
695.388	0.33
695.827	0.33
696.267	0.33
696.706	0.33
697.146	0.32
697.586	0.32
698.025	0.32
698.464	0.32
698.904	0.32
699.343	0.32
699.783	0.31
700.222	0.31
700.661	0.31
701.101	0.31
701.54	0.31
701.979	0.31
702.418	0.31
702.857	0.3
703.297	0.3
703.736	0.3
704.175	0.3
704.614	0.3
705.053	0.29
705.492	0.29
705.931	0.29
706.37	0.29
706.809	0.29
707.248	0.28
707.687	0.28
708.125	0.28
708.564	0.28
709.003	0.28
709.442	0.27
709.88	0.27
710.319	0.27
710.758	0.27
711.196	0.27
711.635	0.26
712.074	0.26
712.512	0.26
712.951	0.26
713.389	0.25
713.828	0.25
714.266	0.25
714.705	0.25
715.143	0.25
715.581	0.24
716.02	0.24
716.458	0.24
716.896	0.24
717.334	0.24
717.773	0.23
718.211	0.23
718.649	0.23
719.087	0.23
719.525	0.23
719.963	0.22
720.401	0.22
720.839	0.22
721.277	0.22
721.715	0.21
722.153	0.21
722.591	0.21
723.029	0.21
723.467	0.21
723.905	0.2
724.342	0.2
724.78	0.2
725.218	0.2
725.656	0.2
726.093	0.2
726.531	0.19
726.969	0.19
727.406	0.19
727.844	0.19
728.281	0.19
728.719	0.18
729.156	0.18
729.594	0.18
730.031	0.18
730.469	0.18
730.906	0.18
731.343	0.17
731.781	0.17
732.218	0.17
732.655	0.17
733.092	0.17
733.53	0.17
733.967	0.16
734.404	0.16
734.841	0.16
735.278	0.16
735.715	0.16
736.152	0.16
736.589	0.15
737.026	0.15
737.463	0.15
737.9	0.15
738.337	0.15
738.774	0.15
739.211	0.14
739.647	0.14
740.084	0.14
740.521	0.14
740.958	0.14
741.394	0.14
741.831	0.14
742.268	0.13
742.704	0.13
743.141	0.13
743.577	0.13
744.014	0.13
744.45	0.13
744.887	0.12
745.323	0.12
745.76	0.12
746.196	0.12
746.632	0.12
747.069	0.12
747.505	0.11
747.941	0.11
748.378	0.11
748.814	0.11
749.25	0.11
749.686	0.11
750.122	0.11
750.558	0.11
750.994	0.11
751.43	0.11
751.866	0.1
752.302	0.1
752.738	0.1
753.174	0.1
753.61	0.1
754.046	0.09
754.482	0.09
754.918	0.09
755.354	0.09
755.789	0.09
756.225	0.09
756.661	0.09
757.096	0.09
757.532	0.09
757.968	0.08
758.403	0.08
758.839	0.08
759.274	0.08
759.71	0.08
760.145	0.08
760.581	0.08
761.016	0.08
761.452	0.08
761.887	0.07
762.322	0.07
762.758	0.07
763.193	0.07
763.628	0.07
764.063	0.07
764.499	0.07
764.934	0.06
765.369	0.06
765.804	0.06
766.239	0.06
766.674	0.06
767.109	0.06
767.544	0.06
767.979	0.05
768.414	0.05
768.849	0.05
769.284	0.05
769.719	0.05
770.154	0.05
770.588	0.05
771.023	0.04
771.458	0.04
771.893	0.04
772.327	0.04
772.762	0.03
773.197	0.03
773.631	0.03
774.066	0.03
774.5	0.02
774.935	0.02
775.369	0.02
775.804	0.02
776.238	0.01
776.673	0.01
777.107	0.01
777.541	0
777.976	0
778.41	-0
778.844	-0
779.279	-0.01
779.713	-0.01
780.147	-0.01
780.581	-0.02
781.015	-0.02
781.449	-0.02
781.883	-0.03
782.317	-0.03
782.751	-0.03
783.185	-0.04
783.619	-0.04
784.053	-0.05
784.487	-0.05
784.921	-0.06
785.355	-0.06
785.789	-0.06
786.223	-0.07
786.656	-0.07
787.09	-0.07
787.524	-0.08
787.957	-0.08
788.391	-0.09
788.825	-0.09
789.258	-0.1
789.692	-0.1
790.125	-0.11
790.559	-0.11
790.992	-0.12
791.426	-0.12
791.859	-0.12
792.293	-0.11
792.726	-0.11
793.159	-0.1
793.593	-0.1
794.026	-0.1
794.459	-0.11
794.892	-0.11
795.326	-0.11
795.759	-0.11
796.192	-0.11
796.625	-0.12
797.058	-0.13
797.491	-0.14
797.924	-0.15
798.357	-0.15
798.79	-0.15
799.223	-0.15
799.656	-0.15
800.089	-0.15
800.522	-0.15
800.955	-0.16
801.387	-0.15
801.82	-0.16
802.253	-0.16
802.686	-0.16
803.118	-0.16
803.551	-0.16
803.984	-0.15
804.416	-0.15
804.849	-0.14
805.281	-0.14
805.714	-0.14
806.146	-0.14
806.579	-0.13
807.011	-0.13
807.444	-0.13
807.876	-0.13
808.308	-0.13
808.741	-0.14
809.173	-0.14
809.605	-0.15
810.037	-0.15
810.47	-0.15
810.902	-0.16
811.334	-0.16
811.766	-0.16
812.198	-0.15
812.63	-0.15
813.062	-0.15
813.494	-0.15
813.926	-0.15
814.358	-0.14
814.79	-0.14
815.222	-0.13
815.654	-0.12
816.086	-0.11
816.518	-0.11
816.949	-0.1
817.381	-0.1
817.813	-0.09
818.245	-0.08
818.676	-0.07
819.108	-0.07
819.54	-0.06
819.971	-0.06
820.403	-0.05
820.834	-0.05
821.266	-0.04
821.697	-0.04
822.129	-0.03
822.56	-0.03
822.991	-0.03
823.423	-0.03
823.854	-0.02
824.286	-0.02
824.717	-0.02
825.148	-0.01
825.579	-0.01
826.01	-0.01
826.442	-0.01
826.873	-0.01
827.304	-0.01
827.735	-0
828.166	-0
828.597	-0
829.028	-0
829.459	-0
829.89	-0
830.321	0
830.752	0
831.183	0
831.613	0
832.044	0
832.475	0.01
832.906	0.01
833.336	0.01
833.767	0.01
834.198	0.01
834.628	0.01
835.059	0.01
835.49	0.01
835.92	0.01
836.351	0.01
836.781	0.01
837.212	0.01
837.642	0.01
838.072	0.01
838.503	0.01
838.933	0.01
839.364	0.01
839.794	0.01
840.224	0.01
840.654	0.01
841.085	0.01
841.515	0
841.945	0
842.375	0
842.805	0
843.235	0
843.665	0
844.095	0
844.525	0
844.955	0
845.385	0
845.815	0
846.245	0
846.675	0
847.105	0
847.534	0
847.964	0
848.394	0
848.824	0
849.253	0
849.683	0
850.112	0
850.542	0
850.972	0
851.401	0
851.831	0
852.26	0
852.69	0
853.119	0
853.548	0
853.978	0
854.407	0
854.836	0
855.266	0
855.695	0
856.124	0
856.553	0.01
856.983	0.01
857.412	0.01
857.841	0.01
858.27	0.01
858.699	0.01
859.128	0.01
859.557	0.01
859.986	0.01
860.415	0.01
860.844	0.01
861.273	0.01
861.702	0.01
862.13	0.01
862.559	0.01
862.988	0.01
863.417	0.01
863.845	0.01
864.274	0.01
864.703	0.01
865.131	0.01
865.56	0.01
865.989	0.01
866.417	0.01
866.846	0.01
867.274	0.01
867.703	0.01
868.131	0.01
868.559	0.01
868.988	0.01
869.416	0.01
869.844	0.01
870.273	0.01
870.701	0.01
871.129	0.01
871.557	0
871.986	0
872.414	0
872.842	0
873.27	0
873.698	0
874.126	-0
874.554	-0
874.982	-0
875.41	-0
875.838	-0
876.266	-0
876.694	-0
877.122	0
877.549	0
877.977	0
878.405	0
878.833	0
879.26	0
879.688	-0
880.116	-0
880.543	-0
880.971	-0
881.399	-0
881.826	-0
882.254	-0
882.681	-0
883.109	-0
883.536	-0.01
883.963	-0.01
884.391	-0.01
884.818	-0.01
885.245	-0.01
885.673	-0.01
886.1	-0.01
886.527	-0.01
886.954	-0.01
887.381	-0.01
887.809	-0.01
888.236	-0.01
888.663	-0.01
889.09	-0.01
889.517	-0.01
889.944	-0.01
890.371	-0
890.798	-0
891.225	-0
891.652	-0
892.078	-0
892.505	-0
892.932	-0
893.359	-0
893.786	-0
894.212	-0
894.639	-0
895.066	-0
895.492	-0
895.919	-0
896.346	-0
896.772	-0.01
897.199	-0.01
897.625	-0.01
898.052	-0.01
898.478	-0.01
898.904	-0.01
899.331	-0.01
899.757	-0.02
900.183	-0.02
900.61	-0.02
901.036	-0.02
901.462	-0.02
901.888	-0.02
902.315	-0.02
902.741	-0.02
903.167	-0.02
903.593	-0.02
904.019	-0.02
904.445	-0.01
904.871	-0.01
905.297	-0.01
905.723	-0.01
906.149	-0.01
906.575	-0.01
907.001	-0.01
907.427	-0.01
907.852	-0
908.278	-0
908.704	-0
909.13	-0
909.555	-0
909.981	-0
910.407	-0.01
910.832	-0.01
911.258	-0.01
911.684	-0.01
912.109	-0.01
912.535	-0.01
912.96	-0.01
913.386	-0.01
913.811	-0.01
914.236	-0.01
914.662	-0.01
915.087	-0
915.512	-0
915.938	-0
916.363	-0
916.788	-0
917.213	-0
917.639	0
918.064	0
918.489	0
918.914	0
919.339	0
919.764	0
920.189	0
920.614	-0
921.039	-0
921.464	-0
921.889	-0
922.314	-0
922.738	0
923.163	0
923.588	0
924.013	0
924.437	-0
924.862	-0
925.287	-0
925.711	-0
926.136	-0
926.561	-0
926.985	-0
927.41	-0
927.834	-0
928.259	-0
928.683	-0
929.108	-0
929.532	-0
929.956	-0
930.381	-0.01
930.805	-0.01
931.229	-0.01
931.653	-0.01
932.078	-0.01
932.502	-0.01
932.926	-0.01
933.35	-0.01
933.774	-0.01
934.198	-0.01
934.622	-0.01
935.046	-0.01
935.47	-0.01
935.894	-0.01
936.318	-0.01
936.742	-0.01
937.166	-0.01
937.59	-0.01
938.014	-0.01
938.437	-0.01
938.861	-0.01
939.285	-0.01
939.709	-0.01
940.132	-0.01
940.556	-0.01
940.98	-0.01
941.403	-0.01
941.827	-0.01
942.25	-0.01
942.674	-0.01
943.097	-0.01
943.521	-0.01
943.944	-0.01
944.368	-0.01
944.791	-0.01
945.214	-0.01
945.638	-0.01
946.061	-0.01
946.484	-0.01
946.907	-0.01
947.331	-0.01
947.754	-0.01
948.177	-0.01
948.6	-0.01
949.023	-0.01
949.446	-0.01
949.869	-0.01
950.292	-0.01
950.715	-0.01
951.138	-0.01
951.561	-0.01
951.984	-0.01
952.407	-0.01
952.83	-0.01
953.252	-0.01
953.675	-0.01
954.098	-0.01
954.521	-0.01
954.943	-0.01
955.366	-0.02
955.789	-0.02
956.211	-0.02
956.634	-0.02
957.056	-0.02
957.479	-0.02
957.902	-0.02
958.324	-0.02
958.746	-0.02
959.169	-0.02
959.591	-0.01
960.014	-0.01
960.436	-0.01
960.858	-0.01
961.281	-0.01
961.703	-0.01
962.125	-0.01
962.547	-0.01
962.969	-0.01
963.391	-0.01
963.814	-0.01
964.236	-0.01
964.658	-0.01
965.08	-0.01
965.502	-0.01
965.924	-0.01
966.346	-0.01
966.768	-0.01
967.189	-0.01
967.611	-0.01
968.033	-0.01
968.455	-0.01
968.877	-0.01
969.298	-0.01
969.72	-0.01
970.142	-0.01
970.563	-0.01
970.985	-0.01
971.407	-0.02
971.828	-0.02
972.25	-0.02
972.671	-0.02
973.093	-0.02
973.514	-0.02
973.936	-0.02
974.357	-0.02
974.778	-0.02
975.2	-0.01
975.621	-0.01
976.042	-0.01
976.464	-0.01
976.885	-0.01
977.306	-0.01
977.727	-0.01
978.148	-0.01
978.57	-0.01
978.991	-0.01
979.412	-0.01
979.833	-0.01
980.254	-0.01
980.675	-0.01
981.096	-0.01
981.517	-0.01
981.937	-0.01
982.358	-0.01
982.779	-0.01
983.2	-0.01
983.621	-0.01
984.042	-0.01
984.462	-0.01
984.883	-0.01
985.304	-0.01
985.724	-0.01
986.145	-0.02
986.565	-0.02
986.986	-0.02
987.407	-0.02
987.827	-0.02
988.248	-0.02
988.668	-0.02
989.088	-0.02
989.509	-0.02
989.929	-0.02
990.35	-0.02
990.77	-0.02
991.19	-0.01
991.61	-0.01
992.031	-0.01
992.451	-0.01
992.871	-0.01
993.291	-0.01
993.711	-0.01
994.131	-0.01
994.551	-0.01
994.971	-0.01
995.391	-0.01
995.811	-0.01
996.231	-0.01
996.651	-0.01
997.071	-0.01
997.491	-0.01
997.911	-0.01
998.331	-0.01
998.75	-0.01
999.17	-0.01
999.59	-0.01
1000.009	-0.01
1000.429	-0.01
1000.849	-0.01
1001.268	-0.01
1001.688	-0.01
1002.107	-0.01
1002.527	-0.01
1002.946	-0.01
1003.366	-0.01
1003.785	-0.01
1004.205	-0.01
1004.624	-0.01
1005.044	-0.01
1005.463	-0.01
1005.882	-0.01
1006.301	-0.01
1006.721	-0.01
1007.14	-0.01
1007.559	-0.01
1007.978	-0.01
1008.397	-0.02
1008.816	-0.02
1009.235	-0.02
1009.655	-0.02
1010.074	-0.02
1010.492	-0.02
1010.911	-0.02
1011.33	-0.02
1011.749	-0.02
1012.168	-0.02
1012.587	-0.02
1013.006	-0.02
1013.425	-0.02
1013.843	-0.02
1014.262	-0.01
1014.681	-0.01
1015.099	-0.01
1015.518	-0.01
1015.937	-0.01
1016.355	-0.01
1016.774	-0.01
1017.192	-0.01
1017.611	-0.01
1018.029	-0.01
1018.448	-0.01
1018.866	-0.01
1019.285	-0.01
1019.703	-0.01
1020.121	-0.01
1020.54	-0.01
1020.958	-0.01
1021.376	-0.01
1021.794	-0.01
1022.213	-0.01
1022.631	-0.01
1023.049	-0.01
1023.467	-0.01
1023.885	-0.01
1024.303	-0.01
1024.721	-0.01
1025.139	-0.01
1025.557	-0.01
1025.975	-0.01
1026.393	-0.01
1026.811	-0.01
1027.229	-0.01
1027.647	-0.01
1028.065	-0.01
1028.482	-0.01
1028.9	-0.01
1029.318	-0.01
1029.735	-0.01
1030.153	-0.01
1030.571	-0.01
1030.988	-0.01
1031.406	-0.01
1031.823	-0.01
1032.241	-0.01
1032.659	-0.01
1033.076	-0.01
1033.493	-0.01
1033.911	-0.01
1034.328	-0.01
1034.746	-0.01
1035.163	-0.01
1035.58	-0.01
1035.997	-0.01
1036.415	-0.01
1036.832	-0.01
1037.249	-0.01
1037.666	-0.02
1038.083	-0.02
1038.501	-0.02
1038.918	-0.02
1039.335	-0.02
1039.752	-0.02
1040.169	-0.02
1040.586	-0.02
1041.003	-0.02
1041.419	-0.02
1041.836	-0.02
1042.253	-0.02
1042.67	-0.02
1043.087	-0.02
1043.504	-0.02
1043.92	-0.02
1044.337	-0.02
1044.754	-0.02
1045.17	-0.02
1045.587	-0.02
1046.004	-0.02
1046.42	-0.02
1046.837	-0.02
1047.253	-0.02
1047.67	-0.02
1048.086	-0.02
1048.503	-0.02
1048.919	-0.02
1049.335	-0.02
1049.752	-0.02
1050.168	-0.02
1050.584	-0.01
1051.001	-0.01
1051.417	-0.01
1051.833	-0.01
1052.249	-0.01
1052.665	-0.01
1053.081	-0.01
1053.497	-0.01
1053.914	-0.01
1054.33	-0.01
1054.746	-0.01
1055.162	-0.01
1055.578	-0.01
1055.993	-0.01
1056.409	-0.01
1056.825	-0.02
1057.241	-0.02
1057.657	-0.02
1058.073	-0.02
1058.488	-0.02
1058.904	-0.02
1059.32	-0.02
1059.736	-0.02
1060.151	-0.02
1060.567	-0.02
1060.982	-0.02
1061.398	-0.02
1061.813	-0.02
1062.229	-0.02
1062.644	-0.02
1063.06	-0.02
1063.475	-0.02
1063.891	-0.02
1064.306	-0.02
1064.721	-0.02
1065.137	-0.02
1065.552	-0.02
1065.967	-0.02
1066.382	-0.02
1066.798	-0.02
1067.213	-0.02
1067.628	-0.02
1068.043	-0.02
1068.458	-0.02
1068.873	-0.02
1069.288	-0.02
1069.703	-0.02
1070.118	-0.02
1070.533	-0.02
1070.948	-0.02
1071.363	-0.02
1071.778	-0.02
1072.193	-0.02
1072.607	-0.02
1073.022	-0.02
1073.437	-0.02
1073.852	-0.02
1074.266	-0.02
1074.681	-0.02
1075.096	-0.02
1075.51	-0.03
1075.925	-0.03
1076.339	-0.03
1076.754	-0.03
1077.168	-0.03
1077.583	-0.03
1077.997	-0.03
1078.412	-0.03
1078.826	-0.03
1079.24	-0.03
1079.655	-0.03
1080.069	-0.03
1080.483	-0.03
1080.897	-0.03
1081.312	-0.03
1081.726	-0.03
1082.14	-0.03
1082.554	-0.03
1082.968	-0.03
1083.382	-0.03
1083.796	-0.03
1084.21	-0.03
1084.624	-0.03
1085.038	-0.03
1085.452	-0.03
1085.866	-0.03
1086.28	-0.03
1086.694	-0.03
1087.108	-0.03
1087.521	-0.03
1087.935	-0.03
1088.349	-0.03
1088.763	-0.03
1089.176	-0.03
1089.59	-0.03
1090.004	-0.03
1090.417	-0.03
1090.831	-0.03
1091.244	-0.03
1091.658	-0.04
1092.071	-0.03
1092.485	-0.04
1092.898	-0.04
1093.312	-0.04
1093.725	-0.04
1094.138	-0.04
1094.552	-0.04
1094.965	-0.04
1095.378	-0.04
1095.791	-0.04
1096.205	-0.04
1096.618	-0.04
1097.031	-0.04
1097.444	-0.04
1097.857	-0.04
1098.27	-0.05
1098.683	-0.05
1099.096	-0.05
1099.509	-0.05
1099.922	-0.05
1100.335	-0.05
1100.748	-0.05
1101.161	-0.05
1101.574	-0.05
1101.986	-0.05
1102.399	-0.05
1102.812	-0.05
1103.225	-0.05
1103.637	-0.05
1104.05	-0.05
1104.463	-0.06
1104.875	-0.06
1105.288	-0.06
1105.7	-0.06
1106.113	-0.06
1106.525	-0.06
1106.938	-0.06
1107.35	-0.07
1107.763	-0.07
1108.175	-0.07
1108.588	-0.07
1109	-0.07
1109.412	-0.07
1109.824	-0.07
1110.237	-0.08
1110.649	-0.08
1111.061	-0.08
