Data from 2024-02-06-100ns-20nr-25nacl-100h2o-7bp2-1_8a808-40to10hyt-0_5cpm_Absorbance__108__00497.txt Node

Date: Tue Feb 06 16:18:19 CET 2024
User: Laser008
Spectrometer: MAYP115816
Trigger mode: 0
Integration Time (sec): 2.000000E-1
Scans to average: 10
Electric dark correction enabled: true
Nonlinearity correction enabled: true
Boxcar width: 5
XAxis mode: Wavelengths
Number of Pixels in Spectrum: 2068
>>>>>Begin Spectral Data<<<<<
198.914	-0.3
199.384	-0.26
199.855	-0.2
200.325	-0.17
200.796	-0.14
201.266	-0.12
201.737	-0.11
202.207	-0.1
202.677	-0.09
203.147	-0.09
203.618	-0.08
204.088	-0.06
204.558	-0.06
205.028	-0.05
205.498	-0.05
205.968	-0.05
206.439	-0.05
206.909	-0.05
207.379	-0.05
207.849	-0.05
208.319	-0.05
208.789	-0.05
209.258	-0.05
209.728	-0.05
210.198	-0.05
210.668	-0.05
211.138	-0.05
211.608	-0.05
212.077	-0.06
212.547	-0.06
213.017	-0.05
213.486	-0.05
213.956	-0.05
214.426	-0.05
214.895	-0.05
215.365	-0.05
215.834	-0.05
216.304	-0.05
216.773	-0.04
217.243	-0.04
217.712	-0.04
218.181	-0.04
218.651	-0.04
219.12	-0.03
219.589	-0.03
220.058	-0.03
220.528	-0.03
220.997	-0.03
221.466	-0.02
221.935	-0.03
222.404	-0.02
222.873	-0.02
223.342	-0.02
223.812	-0.01
224.281	-0.01
224.749	-0
225.218	0
225.687	0.01
226.156	0.02
226.625	0.03
227.094	0.04
227.563	0.06
228.031	0.06
228.5	0.08
228.969	0.1
229.438	0.11
229.906	0.13
230.375	0.16
230.844	0.18
231.312	0.2
231.781	0.22
232.249	0.25
232.718	0.27
233.186	0.3
233.655	0.32
234.123	0.34
234.591	0.36
235.06	0.38
235.528	0.4
235.996	0.41
236.465	0.43
236.933	0.44
237.401	0.45
237.869	0.46
238.337	0.47
238.805	0.48
239.274	0.49
239.742	0.49
240.21	0.5
240.678	0.5
241.146	0.51
241.614	0.51
242.081	0.52
242.549	0.52
243.017	0.52
243.485	0.53
243.953	0.53
244.421	0.53
244.888	0.53
245.356	0.54
245.824	0.54
246.291	0.54
246.759	0.54
247.227	0.54
247.694	0.55
248.162	0.55
248.629	0.55
249.097	0.55
249.564	0.55
250.032	0.55
250.499	0.56
250.967	0.56
251.434	0.56
251.901	0.56
252.369	0.56
252.836	0.56
253.303	0.57
253.77	0.57
254.237	0.57
254.705	0.57
255.172	0.57
255.639	0.57
256.106	0.57
256.573	0.57
257.04	0.57
257.507	0.57
257.974	0.57
258.441	0.57
258.908	0.57
259.375	0.57
259.841	0.57
260.308	0.57
260.775	0.57
261.242	0.57
261.709	0.57
262.175	0.57
262.642	0.57
263.109	0.57
263.575	0.57
264.042	0.56
264.508	0.56
264.975	0.56
265.441	0.56
265.908	0.56
266.374	0.56
266.841	0.55
267.307	0.55
267.773	0.55
268.24	0.55
268.706	0.55
269.172	0.54
269.639	0.54
270.105	0.54
270.571	0.54
271.037	0.53
271.503	0.53
271.969	0.53
272.435	0.52
272.902	0.52
273.368	0.52
273.834	0.51
274.3	0.51
274.765	0.51
275.231	0.5
275.697	0.5
276.163	0.5
276.629	0.49
277.095	0.49
277.56	0.49
278.026	0.48
278.492	0.48
278.958	0.48
279.423	0.47
279.889	0.47
280.354	0.47
280.82	0.46
281.286	0.46
281.751	0.45
282.217	0.45
282.682	0.45
283.147	0.44
283.613	0.44
284.078	0.44
284.544	0.44
285.009	0.43
285.474	0.43
285.939	0.43
286.405	0.42
286.87	0.42
287.335	0.42
287.8	0.42
288.265	0.41
288.73	0.41
289.195	0.41
289.66	0.41
290.125	0.4
290.59	0.4
291.055	0.4
291.52	0.4
291.985	0.39
292.45	0.39
292.915	0.39
293.38	0.39
293.844	0.39
294.309	0.38
294.774	0.38
295.239	0.38
295.703	0.38
296.168	0.38
296.632	0.37
297.097	0.37
297.562	0.37
298.026	0.37
298.491	0.37
298.955	0.37
299.419	0.37
299.884	0.37
300.348	0.36
300.813	0.36
301.277	0.36
301.741	0.36
302.205	0.36
302.67	0.36
303.134	0.36
303.598	0.35
304.062	0.35
304.526	0.35
304.99	0.35
305.454	0.35
305.919	0.35
306.383	0.35
306.847	0.35
307.31	0.35
307.774	0.34
308.238	0.34
308.702	0.34
309.166	0.34
309.63	0.34
310.094	0.34
310.557	0.34
311.021	0.34
311.485	0.34
311.948	0.33
312.412	0.33
312.876	0.33
313.339	0.33
313.803	0.33
314.266	0.33
314.73	0.33
315.193	0.33
315.657	0.33
316.12	0.33
316.584	0.32
317.047	0.32
317.51	0.32
317.973	0.32
318.437	0.32
318.9	0.32
319.363	0.32
319.826	0.32
320.29	0.32
320.753	0.32
321.216	0.32
321.679	0.31
322.142	0.31
322.605	0.31
323.068	0.31
323.531	0.31
323.994	0.31
324.457	0.31
324.92	0.31
325.382	0.31
325.845	0.31
326.308	0.3
326.771	0.3
327.233	0.3
327.696	0.3
328.159	0.3
328.622	0.3
329.084	0.3
329.547	0.3
330.009	0.3
330.472	0.3
330.934	0.3
331.397	0.3
331.859	0.3
332.322	0.29
332.784	0.29
333.246	0.29
333.709	0.29
334.171	0.29
334.633	0.29
335.096	0.29
335.558	0.29
336.02	0.29
336.482	0.29
336.944	0.29
337.406	0.29
337.868	0.29
338.331	0.29
338.793	0.29
339.255	0.28
339.717	0.28
340.178	0.28
340.64	0.28
341.102	0.28
341.564	0.28
342.026	0.28
342.488	0.28
342.949	0.28
343.411	0.28
343.873	0.28
344.335	0.28
344.796	0.28
345.258	0.28
345.719	0.28
346.181	0.28
346.643	0.28
347.104	0.28
347.566	0.28
348.027	0.28
348.488	0.28
348.95	0.28
349.411	0.27
349.873	0.27
350.334	0.27
350.795	0.27
351.256	0.27
351.718	0.27
352.179	0.27
352.64	0.27
353.101	0.27
353.562	0.27
354.023	0.27
354.484	0.27
354.945	0.27
355.406	0.27
355.867	0.27
356.328	0.27
356.789	0.27
357.25	0.27
357.711	0.27
358.172	0.27
358.633	0.27
359.093	0.27
359.554	0.27
360.015	0.27
360.476	0.27
360.936	0.27
361.397	0.27
361.858	0.27
362.318	0.27
362.779	0.27
363.239	0.27
363.7	0.27
364.16	0.27
364.621	0.27
365.081	0.27
365.541	0.27
366.002	0.27
366.462	0.27
366.922	0.27
367.383	0.27
367.843	0.27
368.303	0.27
368.763	0.26
369.223	0.26
369.684	0.26
370.144	0.26
370.604	0.26
371.064	0.26
371.524	0.26
371.984	0.26
372.444	0.26
372.904	0.26
373.363	0.26
373.823	0.26
374.283	0.26
374.743	0.26
375.203	0.26
375.663	0.26
376.122	0.26
376.582	0.26
377.042	0.26
377.501	0.26
377.961	0.26
378.42	0.26
378.88	0.26
379.34	0.26
379.799	0.26
380.259	0.26
380.718	0.26
381.177	0.26
381.637	0.26
382.096	0.25
382.555	0.25
383.015	0.25
383.474	0.25
383.933	0.25
384.393	0.25
384.852	0.25
385.311	0.25
385.77	0.25
386.229	0.25
386.688	0.25
387.147	0.25
387.606	0.25
388.065	0.25
388.524	0.25
388.983	0.25
389.442	0.25
389.901	0.25
390.36	0.25
390.819	0.25
391.277	0.25
391.736	0.25
392.195	0.25
392.654	0.25
393.112	0.25
393.571	0.25
394.03	0.25
394.488	0.25
394.947	0.24
395.405	0.24
395.864	0.24
396.322	0.24
396.781	0.24
397.239	0.24
397.698	0.24
398.156	0.24
398.614	0.24
399.073	0.24
399.531	0.24
399.989	0.24
400.447	0.24
400.905	0.24
401.364	0.24
401.822	0.24
402.28	0.24
402.738	0.24
403.196	0.24
403.654	0.24
404.112	0.24
404.57	0.24
405.028	0.24
405.486	0.24
405.944	0.24
406.402	0.24
406.859	0.24
407.317	0.24
407.775	0.23
408.233	0.23
408.691	0.23
409.148	0.23
409.606	0.23
410.064	0.23
410.521	0.23
410.979	0.23
411.436	0.23
411.894	0.23
412.351	0.23
412.809	0.23
413.266	0.23
413.724	0.23
414.181	0.23
414.638	0.23
415.096	0.23
415.553	0.23
416.01	0.23
416.467	0.23
416.925	0.23
417.382	0.23
417.839	0.23
418.296	0.23
418.753	0.23
419.21	0.23
419.667	0.23
420.124	0.23
420.581	0.23
421.038	0.23
421.495	0.23
421.952	0.23
422.409	0.23
422.866	0.23
423.322	0.23
423.779	0.23
424.236	0.22
424.693	0.22
425.149	0.22
425.606	0.22
426.063	0.22
426.519	0.22
426.976	0.22
427.433	0.22
427.889	0.22
428.346	0.22
428.802	0.22
429.258	0.22
429.715	0.22
430.171	0.22
430.628	0.22
431.084	0.22
431.54	0.22
431.997	0.22
432.453	0.22
432.909	0.22
433.365	0.22
433.821	0.22
434.277	0.22
434.734	0.22
435.19	0.22
435.646	0.22
436.102	0.22
436.558	0.22
437.014	0.22
437.47	0.22
437.925	0.22
438.381	0.22
438.837	0.22
439.293	0.22
439.749	0.22
440.205	0.22
440.66	0.22
441.116	0.22
441.572	0.22
442.027	0.22
442.483	0.22
442.939	0.22
443.394	0.22
443.85	0.22
444.305	0.22
444.761	0.22
445.216	0.22
445.672	0.22
446.127	0.22
446.582	0.22
447.038	0.22
447.493	0.22
447.948	0.22
448.403	0.22
448.859	0.22
449.314	0.22
449.769	0.22
450.224	0.22
450.679	0.22
451.134	0.22
451.589	0.22
452.044	0.22
452.499	0.22
452.954	0.22
453.409	0.22
453.864	0.22
454.319	0.22
454.774	0.22
455.229	0.22
455.684	0.22
456.138	0.22
456.593	0.22
457.048	0.22
457.503	0.22
457.957	0.22
458.412	0.22
458.866	0.22
459.321	0.22
459.776	0.22
460.23	0.22
460.685	0.22
461.139	0.22
461.593	0.22
462.048	0.22
462.502	0.22
462.957	0.22
463.411	0.22
463.865	0.22
464.319	0.22
464.774	0.22
465.228	0.22
465.682	0.22
466.136	0.22
466.59	0.22
467.044	0.22
467.499	0.22
467.953	0.22
468.407	0.22
468.861	0.22
469.315	0.22
469.768	0.22
470.222	0.22
470.676	0.22
471.13	0.22
471.584	0.22
472.038	0.23
472.491	0.23
472.945	0.23
473.399	0.23
473.852	0.23
474.306	0.23
474.76	0.23
475.213	0.23
475.667	0.23
476.12	0.23
476.574	0.23
477.027	0.23
477.481	0.23
477.934	0.23
478.388	0.23
478.841	0.24
479.294	0.24
479.748	0.24
480.201	0.24
480.654	0.24
481.107	0.24
481.561	0.24
482.014	0.24
482.467	0.24
482.92	0.24
483.373	0.25
483.826	0.25
484.279	0.25
484.732	0.25
485.185	0.25
485.638	0.25
486.091	0.25
486.544	0.25
486.997	0.25
487.449	0.26
487.902	0.26
488.355	0.26
488.808	0.26
489.26	0.26
489.713	0.26
490.166	0.26
490.618	0.27
491.071	0.27
491.523	0.27
491.976	0.27
492.429	0.27
492.881	0.28
493.333	0.28
493.786	0.28
494.238	0.28
494.691	0.28
495.143	0.28
495.595	0.29
496.048	0.29
496.5	0.29
496.952	0.29
497.404	0.29
497.856	0.3
498.309	0.3
498.761	0.3
499.213	0.3
499.665	0.31
500.117	0.31
500.569	0.31
501.021	0.31
501.473	0.32
501.925	0.32
502.377	0.32
502.828	0.32
503.28	0.33
503.732	0.33
504.184	0.33
504.636	0.33
505.087	0.33
505.539	0.34
505.991	0.34
506.442	0.34
506.894	0.34
507.345	0.34
507.797	0.35
508.249	0.35
508.7	0.35
509.151	0.35
509.603	0.35
510.054	0.36
510.506	0.36
510.957	0.36
511.408	0.36
511.86	0.36
512.311	0.36
512.762	0.37
513.213	0.37
513.665	0.37
514.116	0.37
514.567	0.37
515.018	0.37
515.469	0.37
515.92	0.38
516.371	0.38
516.822	0.38
517.273	0.38
517.724	0.38
518.175	0.38
518.626	0.38
519.076	0.38
519.527	0.38
519.978	0.38
520.429	0.38
520.88	0.39
521.33	0.39
521.781	0.39
522.232	0.39
522.682	0.39
523.133	0.39
523.583	0.39
524.034	0.39
524.484	0.39
524.935	0.38
525.385	0.38
525.836	0.38
526.286	0.38
526.736	0.38
527.187	0.38
527.637	0.38
528.087	0.38
528.538	0.38
528.988	0.38
529.438	0.38
529.888	0.38
530.338	0.38
530.788	0.37
531.238	0.37
531.688	0.37
532.139	0.37
532.589	0.37
533.038	0.37
533.488	0.36
533.938	0.36
534.388	0.36
534.838	0.36
535.288	0.36
535.738	0.35
536.187	0.35
536.637	0.35
537.087	0.35
537.537	0.34
537.986	0.34
538.436	0.34
538.885	0.34
539.335	0.34
539.785	0.33
540.234	0.33
540.684	0.33
541.133	0.32
541.582	0.32
542.032	0.32
542.481	0.32
542.931	0.31
543.38	0.31
543.829	0.31
544.278	0.3
544.728	0.3
545.177	0.3
545.626	0.29
546.075	0.29
546.524	0.29
546.973	0.29
547.422	0.28
547.871	0.28
548.32	0.28
548.769	0.27
549.218	0.27
549.667	0.27
550.116	0.26
550.565	0.26
551.014	0.26
551.463	0.25
551.911	0.25
552.36	0.25
552.809	0.24
553.258	0.24
553.706	0.24
554.155	0.23
554.603	0.23
555.052	0.23
555.501	0.22
555.949	0.22
556.398	0.22
556.846	0.22
557.294	0.21
557.743	0.21
558.191	0.21
558.64	0.2
559.088	0.2
559.536	0.2
559.985	0.2
560.433	0.19
560.881	0.19
561.329	0.19
561.777	0.18
562.225	0.18
562.674	0.18
563.122	0.18
563.57	0.17
564.018	0.17
564.466	0.17
564.914	0.17
565.362	0.16
565.809	0.16
566.257	0.16
566.705	0.16
567.153	0.15
567.601	0.15
568.048	0.15
568.496	0.15
568.944	0.14
569.392	0.14
569.839	0.14
570.287	0.14
570.734	0.14
571.182	0.13
571.63	0.13
572.077	0.13
572.525	0.13
572.972	0.13
573.419	0.13
573.867	0.12
574.314	0.12
574.761	0.12
575.209	0.12
575.656	0.12
576.103	0.12
576.551	0.11
576.998	0.11
577.445	0.11
577.892	0.11
578.339	0.11
578.786	0.11
579.233	0.11
579.68	0.11
580.127	0.1
580.574	0.1
581.021	0.1
581.468	0.1
581.915	0.1
582.362	0.1
582.809	0.1
583.255	0.09
583.702	0.09
584.149	0.09
584.596	0.09
585.042	0.09
585.489	0.09
585.936	0.09
586.382	0.08
586.829	0.08
587.275	0.08
587.722	0.08
588.168	0.08
588.615	0.08
589.061	0.08
589.508	0.08
589.954	0.08
590.4	0.08
590.847	0.08
591.293	0.08
591.739	0.08
592.185	0.07
592.632	0.07
593.078	0.07
593.524	0.07
593.97	0.07
594.416	0.07
594.862	0.07
595.308	0.07
595.754	0.07
596.2	0.07
596.646	0.07
597.092	0.07
597.538	0.07
597.984	0.07
598.43	0.07
598.876	0.07
599.321	0.07
599.767	0.07
600.213	0.07
600.659	0.07
601.104	0.07
601.55	0.06
601.995	0.06
602.441	0.06
602.887	0.06
603.332	0.06
603.778	0.06
604.223	0.06
604.668	0.06
605.114	0.06
605.559	0.06
606.005	0.06
606.45	0.06
606.895	0.06
607.341	0.06
607.786	0.06
608.231	0.06
608.676	0.06
609.121	0.06
609.566	0.06
610.012	0.06
610.457	0.06
610.902	0.06
611.347	0.06
611.792	0.06
612.237	0.07
612.682	0.07
613.127	0.07
613.571	0.07
614.016	0.07
614.461	0.07
614.906	0.07
615.351	0.07
615.795	0.07
616.24	0.07
616.685	0.07
617.129	0.07
617.574	0.07
618.019	0.07
618.463	0.07
618.908	0.07
619.352	0.07
619.797	0.07
620.241	0.07
620.686	0.07
621.13	0.07
621.574	0.07
622.019	0.07
622.463	0.07
622.907	0.07
623.352	0.07
623.796	0.07
624.24	0.07
624.684	0.07
625.128	0.08
625.572	0.08
626.016	0.08
626.461	0.08
626.905	0.08
627.349	0.08
627.793	0.08
628.236	0.08
628.68	0.08
629.124	0.08
629.568	0.08
630.012	0.08
630.456	0.08
630.9	0.09
631.343	0.09
631.787	0.09
632.231	0.09
632.674	0.09
633.118	0.09
633.562	0.09
634.005	0.1
634.449	0.1
634.892	0.1
635.336	0.1
635.779	0.1
636.223	0.11
636.666	0.11
637.109	0.11
637.553	0.11
637.996	0.11
638.439	0.12
638.883	0.12
639.326	0.12
639.769	0.12
640.212	0.12
640.655	0.12
641.099	0.13
641.542	0.13
641.985	0.13
642.428	0.13
642.871	0.14
643.314	0.14
643.757	0.14
644.2	0.14
644.643	0.15
645.085	0.15
645.528	0.15
645.971	0.15
646.414	0.16
646.857	0.16
647.299	0.16
647.742	0.16
648.185	0.17
648.627	0.17
649.07	0.17
649.513	0.18
649.955	0.18
650.398	0.18
650.84	0.19
651.283	0.19
651.725	0.19
652.168	0.2
652.61	0.2
653.052	0.21
653.495	0.21
653.937	0.17
654.379	0.13
654.821	0.14
655.264	0.14
655.706	0.14
656.148	0.14
656.59	0.15
657.032	0.15
657.474	0.15
657.916	0.15
658.358	0.14
658.8	0.19
659.242	0.25
659.684	0.26
660.126	0.26
660.568	0.26
661.01	0.27
661.452	0.27
661.894	0.28
662.335	0.28
662.777	0.28
663.219	0.29
663.661	0.29
664.102	0.3
664.544	0.3
664.985	0.3
665.427	0.31
665.869	0.31
666.31	0.31
666.752	0.32
667.193	0.32
667.634	0.32
668.076	0.33
668.517	0.33
668.959	0.33
669.4	0.34
669.841	0.34
670.282	0.34
670.724	0.35
671.165	0.35
671.606	0.35
672.047	0.35
672.488	0.36
672.929	0.36
673.37	0.36
673.811	0.36
674.252	0.36
674.693	0.37
675.134	0.37
675.575	0.37
676.016	0.37
676.457	0.37
676.898	0.38
677.339	0.38
677.78	0.38
678.22	0.38
678.661	0.38
679.102	0.38
679.542	0.39
679.983	0.39
680.424	0.39
680.864	0.39
681.305	0.39
681.745	0.39
682.186	0.39
682.626	0.39
683.067	0.4
683.507	0.4
683.948	0.4
684.388	0.4
684.828	0.4
685.269	0.4
685.709	0.4
686.149	0.4
686.589	0.4
687.029	0.4
687.47	0.4
687.91	0.4
688.35	0.4
688.79	0.4
689.23	0.39
689.67	0.39
690.11	0.39
690.55	0.39
690.99	0.39
691.43	0.39
691.87	0.39
692.31	0.39
692.749	0.39
693.189	0.38
693.629	0.38
694.069	0.38
694.508	0.38
694.948	0.38
695.388	0.38
695.827	0.37
696.267	0.37
696.706	0.37
697.146	0.37
697.586	0.37
698.025	0.36
698.464	0.36
698.904	0.36
699.343	0.36
699.783	0.36
700.222	0.35
700.661	0.35
701.101	0.35
701.54	0.35
701.979	0.34
702.418	0.34
702.857	0.34
703.297	0.34
703.736	0.33
704.175	0.33
704.614	0.33
705.053	0.33
705.492	0.32
705.931	0.32
706.37	0.32
706.809	0.32
707.248	0.31
707.687	0.31
708.125	0.31
708.564	0.31
709.003	0.3
709.442	0.3
709.88	0.3
710.319	0.29
710.758	0.29
711.196	0.29
711.635	0.28
712.074	0.28
712.512	0.28
712.951	0.27
713.389	0.27
713.828	0.27
714.266	0.27
714.705	0.26
715.143	0.26
715.581	0.26
716.02	0.25
716.458	0.25
716.896	0.25
717.334	0.24
717.773	0.24
718.211	0.24
718.649	0.24
719.087	0.23
719.525	0.23
719.963	0.23
720.401	0.22
720.839	0.22
721.277	0.22
721.715	0.22
722.153	0.21
722.591	0.21
723.029	0.21
723.467	0.21
723.905	0.2
724.342	0.2
724.78	0.2
725.218	0.19
725.656	0.19
726.093	0.19
726.531	0.19
726.969	0.18
727.406	0.18
727.844	0.18
728.281	0.18
728.719	0.18
729.156	0.17
729.594	0.17
730.031	0.17
730.469	0.17
730.906	0.16
731.343	0.16
731.781	0.16
732.218	0.16
732.655	0.15
733.092	0.15
733.53	0.15
733.967	0.15
734.404	0.14
734.841	0.14
735.278	0.14
735.715	0.14
736.152	0.14
736.589	0.13
737.026	0.13
737.463	0.13
737.9	0.13
738.337	0.12
738.774	0.12
739.211	0.12
739.647	0.12
740.084	0.12
740.521	0.11
740.958	0.11
741.394	0.11
741.831	0.11
742.268	0.11
742.704	0.11
743.141	0.1
743.577	0.1
744.014	0.1
744.45	0.1
744.887	0.1
745.323	0.09
745.76	0.09
746.196	0.09
746.632	0.09
747.069	0.09
747.505	0.09
747.941	0.08
748.378	0.08
748.814	0.08
749.25	0.08
749.686	0.08
750.122	0.08
750.558	0.08
750.994	0.07
751.43	0.07
751.866	0.07
752.302	0.07
752.738	0.06
753.174	0.06
753.61	0.06
754.046	0.06
754.482	0.06
754.918	0.06
755.354	0.06
755.789	0.05
756.225	0.05
756.661	0.05
757.096	0.05
757.532	0.05
757.968	0.05
758.403	0.05
758.839	0.05
759.274	0.05
759.71	0.05
760.145	0.04
760.581	0.04
761.016	0.04
761.452	0.04
761.887	0.04
762.322	0.04
762.758	0.04
763.193	0.04
763.628	0.03
764.063	0.03
764.499	0.03
764.934	0.03
765.369	0.03
765.804	0.03
766.239	0.03
766.674	0.03
767.109	0.02
767.544	0.02
767.979	0.02
768.414	0.02
768.849	0.02
769.284	0.02
769.719	0.02
770.154	0.02
770.588	0.01
771.023	0.01
771.458	0.01
771.893	0.01
772.327	0.01
772.762	0.01
773.197	0
773.631	0
774.066	-0
774.5	-0
774.935	-0
775.369	-0.01
775.804	-0.01
776.238	-0.01
776.673	-0.01
777.107	-0.01
777.541	-0.02
777.976	-0.02
778.41	-0.02
778.844	-0.02
779.279	-0.02
779.713	-0.03
780.147	-0.03
780.581	-0.03
781.015	-0.03
781.449	-0.03
781.883	-0.04
782.317	-0.04
782.751	-0.04
783.185	-0.04
783.619	-0.04
784.053	-0.05
784.487	-0.05
784.921	-0.05
785.355	-0.05
785.789	-0.06
786.223	-0.06
786.656	-0.06
787.09	-0.06
787.524	-0.06
787.957	-0.06
788.391	-0.07
788.825	-0.07
789.258	-0.07
789.692	-0.08
790.125	-0.08
790.559	-0.08
790.992	-0.09
791.426	-0.09
791.859	-0.09
792.293	-0.09
792.726	-0.09
793.159	-0.09
793.593	-0.09
794.026	-0.1
794.459	-0.1
794.892	-0.11
795.326	-0.11
795.759	-0.11
796.192	-0.11
796.625	-0.12
797.058	-0.13
797.491	-0.14
797.924	-0.15
798.357	-0.15
798.79	-0.15
799.223	-0.15
799.656	-0.15
800.089	-0.15
800.522	-0.15
800.955	-0.16
801.387	-0.15
801.82	-0.16
802.253	-0.16
802.686	-0.16
803.118	-0.16
803.551	-0.16
803.984	-0.15
804.416	-0.15
804.849	-0.14
805.281	-0.14
805.714	-0.14
806.146	-0.14
806.579	-0.13
807.011	-0.13
807.444	-0.13
807.876	-0.13
808.308	-0.13
808.741	-0.14
809.173	-0.14
809.605	-0.15
810.037	-0.15
810.47	-0.15
810.902	-0.15
811.334	-0.15
811.766	-0.15
812.198	-0.14
812.63	-0.14
813.062	-0.13
813.494	-0.13
813.926	-0.12
814.358	-0.11
814.79	-0.11
815.222	-0.1
815.654	-0.09
816.086	-0.09
816.518	-0.08
816.949	-0.08
817.381	-0.08
817.813	-0.07
818.245	-0.07
818.676	-0.07
819.108	-0.06
819.54	-0.06
819.971	-0.06
820.403	-0.05
820.834	-0.05
821.266	-0.05
821.697	-0.05
822.129	-0.04
822.56	-0.04
822.991	-0.04
823.423	-0.04
823.854	-0.04
824.286	-0.04
824.717	-0.04
825.148	-0.04
825.579	-0.03
826.01	-0.03
826.442	-0.03
826.873	-0.03
827.304	-0.03
827.735	-0.03
828.166	-0.03
828.597	-0.03
829.028	-0.03
829.459	-0.03
829.89	-0.03
830.321	-0.03
830.752	-0.03
831.183	-0.03
831.613	-0.02
832.044	-0.02
832.475	-0.02
832.906	-0.02
833.336	-0.02
833.767	-0.02
834.198	-0.02
834.628	-0.02
835.059	-0.02
835.49	-0.02
835.92	-0.02
836.351	-0.02
836.781	-0.02
837.212	-0.02
837.642	-0.02
838.072	-0.02
838.503	-0.02
838.933	-0.02
839.364	-0.02
839.794	-0.02
840.224	-0.02
840.654	-0.02
841.085	-0.02
841.515	-0.02
841.945	-0.03
842.375	-0.03
842.805	-0.03
843.235	-0.03
843.665	-0.03
844.095	-0.03
844.525	-0.03
844.955	-0.03
845.385	-0.03
845.815	-0.03
846.245	-0.03
846.675	-0.03
847.105	-0.03
847.534	-0.03
847.964	-0.03
848.394	-0.03
848.824	-0.03
849.253	-0.03
849.683	-0.03
850.112	-0.03
850.542	-0.03
850.972	-0.03
851.401	-0.03
851.831	-0.03
852.26	-0.03
852.69	-0.03
853.119	-0.03
853.548	-0.03
853.978	-0.03
854.407	-0.03
854.836	-0.03
855.266	-0.03
855.695	-0.03
856.124	-0.03
856.553	-0.03
856.983	-0.03
857.412	-0.03
857.841	-0.03
858.27	-0.03
858.699	-0.03
859.128	-0.03
859.557	-0.03
859.986	-0.02
860.415	-0.02
860.844	-0.02
861.273	-0.02
861.702	-0.02
862.13	-0.02
862.559	-0.02
862.988	-0.02
863.417	-0.03
863.845	-0.03
864.274	-0.03
864.703	-0.03
865.131	-0.03
865.56	-0.03
865.989	-0.03
866.417	-0.03
866.846	-0.03
867.274	-0.03
867.703	-0.02
868.131	-0.02
868.559	-0.02
868.988	-0.02
869.416	-0.02
869.844	-0.02
870.273	-0.03
870.701	-0.03
871.129	-0.03
871.557	-0.03
871.986	-0.03
872.414	-0.03
872.842	-0.03
873.27	-0.03
873.698	-0.03
874.126	-0.03
874.554	-0.03
874.982	-0.03
875.41	-0.03
875.838	-0.03
876.266	-0.03
876.694	-0.03
877.122	-0.03
877.549	-0.03
877.977	-0.03
878.405	-0.03
878.833	-0.03
879.26	-0.03
879.688	-0.03
880.116	-0.03
880.543	-0.03
880.971	-0.03
881.399	-0.03
881.826	-0.03
882.254	-0.03
882.681	-0.03
883.109	-0.03
883.536	-0.03
883.963	-0.03
884.391	-0.03
884.818	-0.03
885.245	-0.03
885.673	-0.03
886.1	-0.03
886.527	-0.03
886.954	-0.03
887.381	-0.03
887.809	-0.03
888.236	-0.03
888.663	-0.03
889.09	-0.03
889.517	-0.03
889.944	-0.03
890.371	-0.03
890.798	-0.03
891.225	-0.03
891.652	-0.03
892.078	-0.03
892.505	-0.03
892.932	-0.03
893.359	-0.03
893.786	-0.03
894.212	-0.03
894.639	-0.03
895.066	-0.03
895.492	-0.03
895.919	-0.03
896.346	-0.03
896.772	-0.03
897.199	-0.03
897.625	-0.03
898.052	-0.03
898.478	-0.04
898.904	-0.04
899.331	-0.04
899.757	-0.04
900.183	-0.04
900.61	-0.04
901.036	-0.04
901.462	-0.04
901.888	-0.04
902.315	-0.04
902.741	-0.04
903.167	-0.04
903.593	-0.04
904.019	-0.04
904.445	-0.04
904.871	-0.04
905.297	-0.04
905.723	-0.04
906.149	-0.04
906.575	-0.04
907.001	-0.03
907.427	-0.03
907.852	-0.03
908.278	-0.03
908.704	-0.03
909.13	-0.03
909.555	-0.03
909.981	-0.03
910.407	-0.03
910.832	-0.03
911.258	-0.03
911.684	-0.03
912.109	-0.03
912.535	-0.03
912.96	-0.03
913.386	-0.03
913.811	-0.03
914.236	-0.03
914.662	-0.03
915.087	-0.03
915.512	-0.03
915.938	-0.03
916.363	-0.03
916.788	-0.03
917.213	-0.03
917.639	-0.03
918.064	-0.03
918.489	-0.03
918.914	-0.03
919.339	-0.03
919.764	-0.03
920.189	-0.03
920.614	-0.03
921.039	-0.03
921.464	-0.03
921.889	-0.03
922.314	-0.03
922.738	-0.03
923.163	-0.03
923.588	-0.03
924.013	-0.03
924.437	-0.03
924.862	-0.02
925.287	-0.02
925.711	-0.02
926.136	-0.02
926.561	-0.02
926.985	-0.02
927.41	-0.02
927.834	-0.03
928.259	-0.03
928.683	-0.03
929.108	-0.03
929.532	-0.03
929.956	-0.03
930.381	-0.03
930.805	-0.03
931.229	-0.03
931.653	-0.03
932.078	-0.03
932.502	-0.03
932.926	-0.03
933.35	-0.03
933.774	-0.03
934.198	-0.03
934.622	-0.03
935.046	-0.03
935.47	-0.03
935.894	-0.03
936.318	-0.03
936.742	-0.03
937.166	-0.03
937.59	-0.03
938.014	-0.03
938.437	-0.03
938.861	-0.03
939.285	-0.03
939.709	-0.03
940.132	-0.03
940.556	-0.03
940.98	-0.03
941.403	-0.03
941.827	-0.03
942.25	-0.03
942.674	-0.03
943.097	-0.03
943.521	-0.03
943.944	-0.03
944.368	-0.03
944.791	-0.03
945.214	-0.03
945.638	-0.03
946.061	-0.03
946.484	-0.03
946.907	-0.03
947.331	-0.03
947.754	-0.03
948.177	-0.03
948.6	-0.03
949.023	-0.03
949.446	-0.03
949.869	-0.03
950.292	-0.03
950.715	-0.03
951.138	-0.03
951.561	-0.03
951.984	-0.03
952.407	-0.03
952.83	-0.03
953.252	-0.03
953.675	-0.03
954.098	-0.03
954.521	-0.03
954.943	-0.03
955.366	-0.03
955.789	-0.03
956.211	-0.03
956.634	-0.03
957.056	-0.03
957.479	-0.03
957.902	-0.03
958.324	-0.03
958.746	-0.03
959.169	-0.03
959.591	-0.03
960.014	-0.03
960.436	-0.03
960.858	-0.03
961.281	-0.03
961.703	-0.03
962.125	-0.03
962.547	-0.03
962.969	-0.03
963.391	-0.03
963.814	-0.03
964.236	-0.03
964.658	-0.03
965.08	-0.03
965.502	-0.03
965.924	-0.03
966.346	-0.03
966.768	-0.03
967.189	-0.03
967.611	-0.03
968.033	-0.03
968.455	-0.03
968.877	-0.03
969.298	-0.03
969.72	-0.03
970.142	-0.03
970.563	-0.03
970.985	-0.03
971.407	-0.03
971.828	-0.03
972.25	-0.03
972.671	-0.03
973.093	-0.03
973.514	-0.03
973.936	-0.03
974.357	-0.03
974.778	-0.03
975.2	-0.03
975.621	-0.03
976.042	-0.03
976.464	-0.03
976.885	-0.03
977.306	-0.03
977.727	-0.03
978.148	-0.03
978.57	-0.03
978.991	-0.03
979.412	-0.03
979.833	-0.03
980.254	-0.03
980.675	-0.03
981.096	-0.03
981.517	-0.03
981.937	-0.03
982.358	-0.03
982.779	-0.03
983.2	-0.03
983.621	-0.03
984.042	-0.03
984.462	-0.03
984.883	-0.03
985.304	-0.03
985.724	-0.03
986.145	-0.03
986.565	-0.03
986.986	-0.03
987.407	-0.03
987.827	-0.03
988.248	-0.03
988.668	-0.03
989.088	-0.03
989.509	-0.03
989.929	-0.03
990.35	-0.03
990.77	-0.02
991.19	-0.02
991.61	-0.02
992.031	-0.02
992.451	-0.02
992.871	-0.02
993.291	-0.02
993.711	-0.02
994.131	-0.02
994.551	-0.02
994.971	-0.02
995.391	-0.03
995.811	-0.03
996.231	-0.03
996.651	-0.03
997.071	-0.03
997.491	-0.03
997.911	-0.03
998.331	-0.03
998.75	-0.03
999.17	-0.03
999.59	-0.03
1000.009	-0.03
1000.429	-0.03
1000.849	-0.03
1001.268	-0.03
1001.688	-0.03
1002.107	-0.03
1002.527	-0.03
1002.946	-0.03
1003.366	-0.03
1003.785	-0.03
1004.205	-0.03
1004.624	-0.03
1005.044	-0.03
1005.463	-0.03
1005.882	-0.03
1006.301	-0.03
1006.721	-0.03
1007.14	-0.03
1007.559	-0.03
1007.978	-0.03
1008.397	-0.03
1008.816	-0.03
1009.235	-0.03
1009.655	-0.03
1010.074	-0.03
1010.492	-0.03
1010.911	-0.03
1011.33	-0.03
1011.749	-0.03
1012.168	-0.03
1012.587	-0.03
1013.006	-0.03
1013.425	-0.03
1013.843	-0.03
1014.262	-0.03
1014.681	-0.03
1015.099	-0.03
1015.518	-0.03
1015.937	-0.03
1016.355	-0.03
1016.774	-0.03
1017.192	-0.03
1017.611	-0.03
1018.029	-0.03
1018.448	-0.03
1018.866	-0.03
1019.285	-0.03
1019.703	-0.03
1020.121	-0.03
1020.54	-0.03
1020.958	-0.03
1021.376	-0.03
1021.794	-0.03
1022.213	-0.03
1022.631	-0.03
1023.049	-0.03
1023.467	-0.03
1023.885	-0.03
1024.303	-0.03
1024.721	-0.03
1025.139	-0.03
1025.557	-0.03
1025.975	-0.03
1026.393	-0.03
1026.811	-0.03
1027.229	-0.03
1027.647	-0.03
1028.065	-0.03
1028.482	-0.02
1028.9	-0.02
1029.318	-0.02
1029.735	-0.02
1030.153	-0.02
1030.571	-0.02
1030.988	-0.02
1031.406	-0.02
1031.823	-0.03
1032.241	-0.03
1032.659	-0.03
1033.076	-0.03
1033.493	-0.03
1033.911	-0.03
1034.328	-0.03
1034.746	-0.03
1035.163	-0.03
1035.58	-0.03
1035.997	-0.03
1036.415	-0.03
1036.832	-0.03
1037.249	-0.03
1037.666	-0.03
1038.083	-0.03
1038.501	-0.03
1038.918	-0.03
1039.335	-0.03
1039.752	-0.03
1040.169	-0.03
1040.586	-0.03
1041.003	-0.03
1041.419	-0.03
1041.836	-0.03
1042.253	-0.03
1042.67	-0.03
1043.087	-0.03
1043.504	-0.03
1043.92	-0.03
1044.337	-0.03
1044.754	-0.03
1045.17	-0.03
1045.587	-0.03
1046.004	-0.03
1046.42	-0.03
1046.837	-0.03
1047.253	-0.03
1047.67	-0.03
1048.086	-0.03
1048.503	-0.03
1048.919	-0.03
1049.335	-0.03
1049.752	-0.03
1050.168	-0.03
1050.584	-0.03
1051.001	-0.03
1051.417	-0.03
1051.833	-0.03
1052.249	-0.03
1052.665	-0.03
1053.081	-0.03
1053.497	-0.03
1053.914	-0.03
1054.33	-0.03
1054.746	-0.03
1055.162	-0.03
1055.578	-0.03
1055.993	-0.03
1056.409	-0.03
1056.825	-0.03
1057.241	-0.03
1057.657	-0.03
1058.073	-0.03
1058.488	-0.03
1058.904	-0.04
1059.32	-0.04
1059.736	-0.04
1060.151	-0.04
1060.567	-0.04
1060.982	-0.04
1061.398	-0.04
1061.813	-0.04
1062.229	-0.04
1062.644	-0.04
1063.06	-0.04
1063.475	-0.03
1063.891	-0.03
1064.306	-0.03
1064.721	-0.03
1065.137	-0.03
1065.552	-0.03
1065.967	-0.03
1066.382	-0.03
1066.798	-0.03
1067.213	-0.03
1067.628	-0.03
1068.043	-0.03
1068.458	-0.03
1068.873	-0.03
1069.288	-0.03
1069.703	-0.03
1070.118	-0.03
1070.533	-0.03
1070.948	-0.03
1071.363	-0.03
1071.778	-0.03
1072.193	-0.03
1072.607	-0.04
1073.022	-0.04
1073.437	-0.04
1073.852	-0.04
1074.266	-0.04
1074.681	-0.04
1075.096	-0.04
1075.51	-0.04
1075.925	-0.04
1076.339	-0.04
1076.754	-0.04
1077.168	-0.04
1077.583	-0.04
1077.997	-0.04
1078.412	-0.04
1078.826	-0.04
1079.24	-0.04
1079.655	-0.04
1080.069	-0.04
1080.483	-0.04
1080.897	-0.04
1081.312	-0.04
1081.726	-0.04
1082.14	-0.04
1082.554	-0.04
1082.968	-0.04
1083.382	-0.04
1083.796	-0.04
1084.21	-0.04
1084.624	-0.04
1085.038	-0.04
1085.452	-0.04
1085.866	-0.04
1086.28	-0.04
1086.694	-0.04
1087.108	-0.04
1087.521	-0.04
1087.935	-0.04
1088.349	-0.04
1088.763	-0.04
1089.176	-0.04
1089.59	-0.04
1090.004	-0.04
1090.417	-0.04
1090.831	-0.04
1091.244	-0.04
1091.658	-0.04
1092.071	-0.04
1092.485	-0.04
1092.898	-0.05
1093.312	-0.05
1093.725	-0.05
1094.138	-0.05
1094.552	-0.05
1094.965	-0.05
1095.378	-0.05
1095.791	-0.05
1096.205	-0.05
1096.618	-0.05
1097.031	-0.05
1097.444	-0.05
1097.857	-0.05
1098.27	-0.05
1098.683	-0.05
1099.096	-0.05
1099.509	-0.05
1099.922	-0.06
1100.335	-0.06
1100.748	-0.06
1101.161	-0.06
1101.574	-0.06
1101.986	-0.06
1102.399	-0.06
1102.812	-0.06
1103.225	-0.06
1103.637	-0.06
1104.05	-0.06
1104.463	-0.06
1104.875	-0.07
1105.288	-0.07
1105.7	-0.07
1106.113	-0.07
1106.525	-0.07
1106.938	-0.08
1107.35	-0.08
1107.763	-0.08
1108.175	-0.08
1108.588	-0.08
1109	-0.08
1109.412	-0.08
1109.824	-0.08
1110.237	-0.08
1110.649	-0.09
1111.061	-0.09
