Data from redip-kinet-2-5a_Absorbance__26__00026.txt Node

Date: Fri Apr 12 13:46:22 CEST 2024
User: Laser008
Spectrometer: MAYP115816
Trigger mode: 0
Integration Time (sec): 2.000000E-1
Scans to average: 10
Electric dark correction enabled: true
Nonlinearity correction enabled: true
Boxcar width: 5
XAxis mode: Wavelengths
Number of Pixels in Spectrum: 2068
>>>>>Begin Spectral Data<<<<<
198.914	-2.45
199.384	-2.29
199.855	-2.15
200.325	-2.04
200.796	-1.97
201.266	-1.91
201.737	-1.83
202.207	-1.77
202.677	-1.72
203.147	-1.67
203.618	-1.64
204.088	-1.62
204.558	-1.6
205.028	-1.59
205.498	-1.58
205.968	-1.58
206.439	-1.58
206.909	-1.57
207.379	-1.57
207.849	-1.56
208.319	-1.56
208.789	-1.56
209.258	-1.56
209.728	-1.55
210.198	-1.55
210.668	-1.55
211.138	-1.55
211.608	-1.54
212.077	-1.55
212.547	-1.55
213.017	-1.54
213.486	-1.54
213.956	-1.54
214.426	-1.54
214.895	-1.54
215.365	-1.54
215.834	-1.54
216.304	-1.53
216.773	-1.53
217.243	-1.53
217.712	-1.53
218.181	-1.52
218.651	-1.52
219.12	-1.52
219.589	-1.52
220.058	-1.52
220.528	-1.51
220.997	-1.51
221.466	-1.5
221.935	-1.5
222.404	-1.49
222.873	-1.49
223.342	-1.48
223.812	-1.48
224.281	-1.47
224.749	-1.46
225.218	-1.45
225.687	-1.44
226.156	-1.43
226.625	-1.42
227.094	-1.4
227.563	-1.39
228.031	-1.37
228.5	-1.35
228.969	-1.32
229.438	-1.29
229.906	-1.26
230.375	-1.23
230.844	-1.19
231.312	-1.15
231.781	-1.1
232.249	-1.06
232.718	-1.01
233.186	-0.96
233.655	-0.91
234.123	-0.86
234.591	-0.81
235.06	-0.76
235.528	-0.72
235.996	-0.67
236.465	-0.62
236.933	-0.58
237.401	-0.53
237.869	-0.49
238.337	-0.45
238.805	-0.41
239.274	-0.38
239.742	-0.34
240.21	-0.31
240.678	-0.28
241.146	-0.25
241.614	-0.23
242.081	-0.2
242.549	-0.18
243.017	-0.16
243.485	-0.14
243.953	-0.12
244.421	-0.1
244.888	-0.09
245.356	-0.07
245.824	-0.06
246.291	-0.04
246.759	-0.03
247.227	-0.02
247.694	-0.01
248.162	0
248.629	0.01
249.097	0.02
249.564	0.03
250.032	0.04
250.499	0.04
250.967	0.05
251.434	0.06
251.901	0.07
252.369	0.07
252.836	0.08
253.303	0.08
253.77	0.09
254.237	0.1
254.705	0.1
255.172	0.11
255.639	0.11
256.106	0.11
256.573	0.12
257.04	0.12
257.507	0.12
257.974	0.13
258.441	0.13
258.908	0.13
259.375	0.13
259.841	0.14
260.308	0.14
260.775	0.14
261.242	0.14
261.709	0.14
262.175	0.14
262.642	0.14
263.109	0.14
263.575	0.15
264.042	0.15
264.508	0.15
264.975	0.15
265.441	0.15
265.908	0.15
266.374	0.15
266.841	0.15
267.307	0.15
267.773	0.15
268.24	0.15
268.706	0.15
269.172	0.15
269.639	0.15
270.105	0.15
270.571	0.15
271.037	0.15
271.503	0.14
271.969	0.14
272.435	0.14
272.902	0.14
273.368	0.14
273.834	0.14
274.3	0.14
274.765	0.14
275.231	0.14
275.697	0.14
276.163	0.13
276.629	0.13
277.095	0.13
277.56	0.13
278.026	0.13
278.492	0.13
278.958	0.12
279.423	0.12
279.889	0.12
280.354	0.12
280.82	0.12
281.286	0.12
281.751	0.12
282.217	0.12
282.682	0.12
283.147	0.12
283.613	0.12
284.078	0.12
284.544	0.12
285.009	0.12
285.474	0.12
285.939	0.12
286.405	0.12
286.87	0.12
287.335	0.11
287.8	0.11
288.265	0.11
288.73	0.11
289.195	0.11
289.66	0.11
290.125	0.11
290.59	0.11
291.055	0.11
291.52	0.11
291.985	0.11
292.45	0.11
292.915	0.11
293.38	0.11
293.844	0.11
294.309	0.11
294.774	0.11
295.239	0.11
295.703	0.11
296.168	0.11
296.632	0.11
297.097	0.11
297.562	0.11
298.026	0.11
298.491	0.11
298.955	0.11
299.419	0.11
299.884	0.1
300.348	0.1
300.813	0.1
301.277	0.1
301.741	0.1
302.205	0.1
302.67	0.1
303.134	0.1
303.598	0.1
304.062	0.1
304.526	0.1
304.99	0.1
305.454	0.1
305.919	0.1
306.383	0.1
306.847	0.1
307.31	0.1
307.774	0.1
308.238	0.1
308.702	0.1
309.166	0.1
309.63	0.1
310.094	0.1
310.557	0.1
311.021	0.1
311.485	0.1
311.948	0.1
312.412	0.1
312.876	0.1
313.339	0.1
313.803	0.1
314.266	0.1
314.73	0.1
315.193	0.1
315.657	0.1
316.12	0.1
316.584	0.1
317.047	0.1
317.51	0.1
317.973	0.1
318.437	0.1
318.9	0.1
319.363	0.09
319.826	0.09
320.29	0.09
320.753	0.09
321.216	0.09
321.679	0.09
322.142	0.09
322.605	0.09
323.068	0.09
323.531	0.09
323.994	0.09
324.457	0.09
324.92	0.09
325.382	0.09
325.845	0.09
326.308	0.09
326.771	0.09
327.233	0.09
327.696	0.09
328.159	0.09
328.622	0.09
329.084	0.09
329.547	0.09
330.009	0.09
330.472	0.08
330.934	0.08
331.397	0.08
331.859	0.08
332.322	0.08
332.784	0.08
333.246	0.08
333.709	0.08
334.171	0.08
334.633	0.08
335.096	0.08
335.558	0.08
336.02	0.08
336.482	0.08
336.944	0.08
337.406	0.08
337.868	0.08
338.331	0.08
338.793	0.08
339.255	0.08
339.717	0.08
340.178	0.07
340.64	0.07
341.102	0.07
341.564	0.07
342.026	0.07
342.488	0.07
342.949	0.07
343.411	0.07
343.873	0.07
344.335	0.07
344.796	0.07
345.258	0.07
345.719	0.07
346.181	0.07
346.643	0.07
347.104	0.07
347.566	0.07
348.027	0.07
348.488	0.07
348.95	0.06
349.411	0.06
349.873	0.06
350.334	0.06
350.795	0.06
351.256	0.06
351.718	0.06
352.179	0.06
352.64	0.06
353.101	0.06
353.562	0.05
354.023	0.05
354.484	0.05
354.945	0.05
355.406	0.05
355.867	0.05
356.328	0.05
356.789	0.05
357.25	0.05
357.711	0.05
358.172	0.05
358.633	0.05
359.093	0.05
359.554	0.05
360.015	0.05
360.476	0.05
360.936	0.05
361.397	0.06
361.858	0.06
362.318	0.06
362.779	0.06
363.239	0.06
363.7	0.06
364.16	0.06
364.621	0.06
365.081	0.05
365.541	0.05
366.002	0.05
366.462	0.05
366.922	0.05
367.383	0.05
367.843	0.05
368.303	0.05
368.763	0.05
369.223	0.05
369.684	0.05
370.144	0.05
370.604	0.05
371.064	0.05
371.524	0.05
371.984	0.05
372.444	0.05
372.904	0.05
373.363	0.05
373.823	0.05
374.283	0.05
374.743	0.05
375.203	0.05
375.663	0.05
376.122	0.05
376.582	0.05
377.042	0.05
377.501	0.05
377.961	0.05
378.42	0.05
378.88	0.05
379.34	0.05
379.799	0.05
380.259	0.05
380.718	0.05
381.177	0.05
381.637	0.05
382.096	0.05
382.555	0.05
383.015	0.05
383.474	0.05
383.933	0.05
384.393	0.05
384.852	0.05
385.311	0.05
385.77	0.05
386.229	0.05
386.688	0.05
387.147	0.05
387.606	0.05
388.065	0.05
388.524	0.05
388.983	0.05
389.442	0.05
389.901	0.05
390.36	0.05
390.819	0.05
391.277	0.05
391.736	0.05
392.195	0.05
392.654	0.05
393.112	0.05
393.571	0.05
394.03	0.05
394.488	0.05
394.947	0.05
395.405	0.05
395.864	0.05
396.322	0.05
396.781	0.05
397.239	0.05
397.698	0.05
398.156	0.05
398.614	0.05
399.073	0.05
399.531	0.05
399.989	0.05
400.447	0.05
400.905	0.05
401.364	0.05
401.822	0.05
402.28	0.05
402.738	0.05
403.196	0.05
403.654	0.05
404.112	0.05
404.57	0.05
405.028	0.05
405.486	0.05
405.944	0.05
406.402	0.04
406.859	0.04
407.317	0.04
407.775	0.04
408.233	0.04
408.691	0.04
409.148	0.04
409.606	0.04
410.064	0.04
410.521	0.04
410.979	0.04
411.436	0.04
411.894	0.04
412.351	0.04
412.809	0.04
413.266	0.04
413.724	0.04
414.181	0.04
414.638	0.04
415.096	0.04
415.553	0.04
416.01	0.04
416.467	0.04
416.925	0.04
417.382	0.04
417.839	0.04
418.296	0.04
418.753	0.04
419.21	0.04
419.667	0.04
420.124	0.04
420.581	0.04
421.038	0.04
421.495	0.04
421.952	0.04
422.409	0.04
422.866	0.04
423.322	0.04
423.779	0.04
424.236	0.04
424.693	0.04
425.149	0.04
425.606	0.04
426.063	0.04
426.519	0.04
426.976	0.04
427.433	0.04
427.889	0.04
428.346	0.04
428.802	0.04
429.258	0.04
429.715	0.04
430.171	0.04
430.628	0.04
431.084	0.04
431.54	0.04
431.997	0.04
432.453	0.04
432.909	0.04
433.365	0.04
433.821	0.04
434.277	0.04
434.734	0.04
435.19	0.04
435.646	0.04
436.102	0.04
436.558	0.04
437.014	0.04
437.47	0.04
437.925	0.04
438.381	0.04
438.837	0.03
439.293	0.03
439.749	0.03
440.205	0.03
440.66	0.03
441.116	0.03
441.572	0.03
442.027	0.03
442.483	0.04
442.939	0.04
443.394	0.04
443.85	0.04
444.305	0.04
444.761	0.04
445.216	0.04
445.672	0.04
446.127	0.04
446.582	0.04
447.038	0.04
447.493	0.04
447.948	0.04
448.403	0.04
448.859	0.04
449.314	0.03
449.769	0.03
450.224	0.03
450.679	0.03
451.134	0.03
451.589	0.03
452.044	0.03
452.499	0.03
452.954	0.03
453.409	0.03
453.864	0.03
454.319	0.03
454.774	0.02
455.229	0.02
455.684	0.02
456.138	0.02
456.593	0.02
457.048	0.02
457.503	0.02
457.957	0.02
458.412	0.02
458.866	0.02
459.321	0.02
459.776	0.02
460.23	0.02
460.685	0.02
461.139	0.02
461.593	0.02
462.048	0.02
462.502	0.02
462.957	0.02
463.411	0.02
463.865	0.02
464.319	0.02
464.774	0.02
465.228	0.02
465.682	0.02
466.136	0.02
466.59	0.02
467.044	0.02
467.499	0.02
467.953	0.01
468.407	0.01
468.861	0.01
469.315	0
469.768	0
470.222	0
470.676	-0
471.13	-0
471.584	-0
472.038	-0
472.491	-0
472.945	-0
473.399	0
473.852	0
474.306	0
474.76	0
475.213	0.01
475.667	0.01
476.12	0.01
476.574	0.01
477.027	0.01
477.481	0
477.934	0
478.388	0
478.841	0
479.294	0
479.748	0
480.201	0.01
480.654	0.01
481.107	0.01
481.561	0.01
482.014	0.01
482.467	0.01
482.92	0.01
483.373	0.01
483.826	0.02
484.279	0.02
484.732	0.02
485.185	0.02
485.638	0.02
486.091	0.02
486.544	0.02
486.997	0.02
487.449	0.02
487.902	0.02
488.355	0.02
488.808	0.01
489.26	0.01
489.713	0.01
490.166	0
490.618	0
491.071	0
491.523	0
491.976	0
492.429	0
492.881	-0
493.333	-0
493.786	0
494.238	0
494.691	0
495.143	0
495.595	0
496.048	0
496.5	0
496.952	0
497.404	0
497.856	0
498.309	0
498.761	0
499.213	-0
499.665	-0
500.117	-0
500.569	-0
501.021	0
501.473	0
501.925	0
502.377	0
502.828	0
503.28	0
503.732	0
504.184	0
504.636	0
505.087	0
505.539	0
505.991	0
506.442	-0
506.894	-0
507.345	-0
507.797	-0
508.249	-0
508.7	-0.01
509.151	-0.01
509.603	-0.01
510.054	-0.01
510.506	-0.01
510.957	-0.01
511.408	-0.01
511.86	-0.01
512.311	-0.01
512.762	-0.02
513.213	-0.02
513.665	-0.02
514.116	-0.02
514.567	-0.02
515.018	-0.02
515.469	-0.02
515.92	-0.03
516.371	-0.03
516.822	-0.03
517.273	-0.03
517.724	-0.03
518.175	-0.03
518.626	-0.03
519.076	-0.03
519.527	-0.03
519.978	-0.03
520.429	-0.04
520.88	-0.04
521.33	-0.04
521.781	-0.04
522.232	-0.05
522.682	-0.05
523.133	-0.06
523.583	-0.06
524.034	-0.06
524.484	-0.06
524.935	-0.06
525.385	-0.06
525.836	-0.06
526.286	-0.05
526.736	-0.05
527.187	-0.04
527.637	-0.04
528.087	-0.03
528.538	-0.03
528.988	-0.02
529.438	-0.02
529.888	-0.02
530.338	-0.02
530.788	-0.01
531.238	-0.01
531.688	-0.01
532.139	-0.01
532.589	-0.01
533.038	-0.01
533.488	-0.01
533.938	-0.01
534.388	-0.01
534.838	-0
535.288	-0
535.738	-0
536.187	-0
536.637	-0
537.087	0
537.537	0
537.986	0
538.436	0
538.885	0
539.335	0
539.785	0.01
540.234	0.01
540.684	0.01
541.133	0.01
541.582	0.01
542.032	0.01
542.481	0.01
542.931	0.01
543.38	0.01
543.829	0.01
544.278	0.01
544.728	0.01
545.177	0.01
545.626	0.01
546.075	0.01
546.524	0.01
546.973	0.01
547.422	0.01
547.871	0.01
548.32	0.01
548.769	0.01
549.218	0.01
549.667	0.01
550.116	0.01
550.565	0.01
551.014	0.01
551.463	0.01
551.911	0.01
552.36	0.01
552.809	0.01
553.258	0.01
553.706	0.01
554.155	0.01
554.603	0.01
555.052	0.01
555.501	0.01
555.949	0.01
556.398	0
556.846	0
557.294	0
557.743	0
558.191	-0
558.64	-0
559.088	0
559.536	0
559.985	0
560.433	0.01
560.881	0.01
561.329	0.01
561.777	0.01
562.225	0.01
562.674	0.01
563.122	0.01
563.57	0.01
564.018	0.01
564.466	0.01
564.914	0.01
565.362	0.01
565.809	0.01
566.257	0.01
566.705	0.01
567.153	0.02
567.601	0.02
568.048	0.03
568.496	0.03
568.944	0.04
569.392	0.04
569.839	0.05
570.287	0.05
570.734	0.06
571.182	0.06
571.63	0.06
572.077	0.07
572.525	0.07
572.972	0.07
573.419	0.07
573.867	0.07
574.314	0.07
574.761	0.08
575.209	0.08
575.656	0.08
576.103	0.08
576.551	0.08
576.998	0.08
577.445	0.08
577.892	0.08
578.339	0.08
578.786	0.09
579.233	0.09
579.68	0.09
580.127	0.09
580.574	0.09
581.021	0.09
581.468	0.09
581.915	0.09
582.362	0.09
582.809	0.09
583.255	0.09
583.702	0.09
584.149	0.09
584.596	0.09
585.042	0.08
585.489	0.08
585.936	0.08
586.382	0.08
586.829	0.09
587.275	0.08
587.722	0.08
588.168	0.08
588.615	0.07
589.061	0.07
589.508	0.07
589.954	0.07
590.4	0.07
590.847	0.07
591.293	0.07
591.739	0.07
592.185	0.07
592.632	0.07
593.078	0.07
593.524	0.07
593.97	0.07
594.416	0.07
594.862	0.07
595.308	0.07
595.754	0.07
596.2	0.07
596.646	0.07
597.092	0.07
597.538	0.07
597.984	0.07
598.43	0.08
598.876	0.08
599.321	0.08
599.767	0.08
600.213	0.08
600.659	0.08
601.104	0.08
601.55	0.08
601.995	0.07
602.441	0.07
602.887	0.07
603.332	0.07
603.778	0.07
604.223	0.07
604.668	0.07
605.114	0.08
605.559	0.08
606.005	0.08
606.45	0.08
606.895	0.08
607.341	0.08
607.786	0.08
608.231	0.08
608.676	0.08
609.121	0.07
609.566	0.07
610.012	0.07
610.457	0.07
610.902	0.07
611.347	0.07
611.792	0.07
612.237	0.07
612.682	0.07
613.127	0.07
613.571	0.07
614.016	0.07
614.461	0.07
614.906	0.07
615.351	0.07
615.795	0.07
616.24	0.07
616.685	0.06
617.129	0.06
617.574	0.06
618.019	0.06
618.463	0.05
618.908	0.05
619.352	0.05
619.797	0.05
620.241	0.05
620.686	0.05
621.13	0.05
621.574	0.05
622.019	0.06
622.463	0.06
622.907	0.06
623.352	0.06
623.796	0.06
624.24	0.06
624.684	0.06
625.128	0.05
625.572	0.05
626.016	0.05
626.461	0.05
626.905	0.05
627.349	0.05
627.793	0.05
628.236	0.05
628.68	0.05
629.124	0.05
629.568	0.05
630.012	0.04
630.456	0.04
630.9	0.04
631.343	0.04
631.787	0.04
632.231	0.04
632.674	0.04
633.118	0.03
633.562	0.03
634.005	0.03
634.449	0.04
634.892	0.04
635.336	0.04
635.779	0.04
636.223	0.04
636.666	0.04
637.109	0.04
637.553	0.04
637.996	0.04
638.439	0.04
638.883	0.04
639.326	0.04
639.769	0.04
640.212	0.04
640.655	0.04
641.099	0.04
641.542	0.04
641.985	0.04
642.428	0.04
642.871	0.04
643.314	0.04
643.757	0.05
644.2	0.05
644.643	0.05
645.085	0.05
645.528	0.05
645.971	0.05
646.414	0.06
646.857	0.06
647.299	0.06
647.742	0.06
648.185	0.07
648.627	0.07
649.07	0.07
649.513	0.07
649.955	0.07
650.398	0.07
650.84	0.07
651.283	0.07
651.725	0.07
652.168	0.07
652.61	0.07
653.052	0.08
653.495	0.08
653.937	0.07
654.379	0.07
654.821	0.07
655.264	0.08
655.706	0.08
656.148	0.08
656.59	0.08
657.032	0.08
657.474	0.08
657.916	0.08
658.358	0.08
658.8	0.09
659.242	0.1
659.684	0.09
660.126	0.09
660.568	0.09
661.01	0.09
661.452	0.09
661.894	0.09
662.335	0.09
662.777	0.1
663.219	0.1
663.661	0.1
664.102	0.1
664.544	0.1
664.985	0.1
665.427	0.11
665.869	0.11
666.31	0.11
666.752	0.11
667.193	0.11
667.634	0.11
668.076	0.11
668.517	0.11
668.959	0.12
669.4	0.12
669.841	0.12
670.282	0.12
670.724	0.13
671.165	0.13
671.606	0.13
672.047	0.13
672.488	0.13
672.929	0.13
673.37	0.13
673.811	0.13
674.252	0.13
674.693	0.12
675.134	0.12
675.575	0.12
676.016	0.12
676.457	0.13
676.898	0.13
677.339	0.13
677.78	0.13
678.22	0.14
678.661	0.14
679.102	0.14
679.542	0.14
679.983	0.14
680.424	0.14
680.864	0.14
681.305	0.14
681.745	0.14
682.186	0.14
682.626	0.14
683.067	0.15
683.507	0.15
683.948	0.15
684.388	0.15
684.828	0.15
685.269	0.15
685.709	0.16
686.149	0.16
686.589	0.16
687.029	0.16
687.47	0.16
687.91	0.16
688.35	0.15
688.79	0.15
689.23	0.16
689.67	0.16
690.11	0.16
690.55	0.16
690.99	0.16
691.43	0.16
691.87	0.16
692.31	0.16
692.749	0.16
693.189	0.16
693.629	0.16
694.069	0.16
694.508	0.16
694.948	0.16
695.388	0.17
695.827	0.17
696.267	0.17
696.706	0.17
697.146	0.17
697.586	0.17
698.025	0.17
698.464	0.17
698.904	0.17
699.343	0.17
699.783	0.16
700.222	0.16
700.661	0.16
701.101	0.16
701.54	0.16
701.979	0.16
702.418	0.16
702.857	0.16
703.297	0.16
703.736	0.16
704.175	0.16
704.614	0.16
705.053	0.16
705.492	0.16
705.931	0.16
706.37	0.16
706.809	0.16
707.248	0.16
707.687	0.16
708.125	0.16
708.564	0.16
709.003	0.16
709.442	0.16
709.88	0.16
710.319	0.15
710.758	0.15
711.196	0.15
711.635	0.15
712.074	0.15
712.512	0.15
712.951	0.15
713.389	0.15
713.828	0.15
714.266	0.15
714.705	0.15
715.143	0.14
715.581	0.14
716.02	0.14
716.458	0.14
716.896	0.14
717.334	0.14
717.773	0.13
718.211	0.13
718.649	0.13
719.087	0.13
719.525	0.13
719.963	0.13
720.401	0.13
720.839	0.13
721.277	0.12
721.715	0.12
722.153	0.12
722.591	0.12
723.029	0.12
723.467	0.12
723.905	0.12
724.342	0.12
724.78	0.12
725.218	0.12
725.656	0.12
726.093	0.12
726.531	0.12
726.969	0.11
727.406	0.11
727.844	0.11
728.281	0.11
728.719	0.11
729.156	0.11
729.594	0.11
730.031	0.11
730.469	0.11
730.906	0.11
731.343	0.11
731.781	0.11
732.218	0.11
732.655	0.11
733.092	0.1
733.53	0.1
733.967	0.1
734.404	0.1
734.841	0.1
735.278	0.09
735.715	0.09
736.152	0.09
736.589	0.09
737.026	0.09
737.463	0.08
737.9	0.08
738.337	0.08
738.774	0.08
739.211	0.08
739.647	0.07
740.084	0.07
740.521	0.07
740.958	0.06
741.394	0.06
741.831	0.05
742.268	0.05
742.704	0.04
743.141	0.04
743.577	0.03
744.014	0.03
744.45	0.03
744.887	0.03
745.323	0.03
745.76	0.03
746.196	0.03
746.632	0.03
747.069	0.03
747.505	0.03
747.941	0.03
748.378	0.04
748.814	0.04
749.25	0.04
749.686	0.04
750.122	0.04
750.558	0.04
750.994	0.04
751.43	0.04
751.866	0.04
752.302	0.04
752.738	0.04
753.174	0.04
753.61	0.04
754.046	0.04
754.482	0.04
754.918	0.04
755.354	0.05
755.789	0.05
756.225	0.05
756.661	0.05
757.096	0.05
757.532	0.05
757.968	0.05
758.403	0.05
758.839	0.05
759.274	0.05
759.71	0.04
760.145	0.04
760.581	0.03
761.016	0.03
761.452	0.03
761.887	0.02
762.322	0.02
762.758	0.02
763.193	0.02
763.628	0.01
764.063	0.01
764.499	0.01
764.934	0
765.369	0
765.804	-0
766.239	-0
766.674	-0
767.109	-0
767.544	-0.01
767.979	-0.01
768.414	-0.01
768.849	-0.02
769.284	-0.02
769.719	-0.02
770.154	-0.02
770.588	-0.02
771.023	-0.03
771.458	-0.03
771.893	-0.04
772.327	-0.04
772.762	-0.04
773.197	-0.05
773.631	-0.05
774.066	-0.06
774.5	-0.06
774.935	-0.06
775.369	-0.06
775.804	-0.07
776.238	-0.07
776.673	-0.07
777.107	-0.07
777.541	-0.06
777.976	-0.06
778.41	-0.06
778.844	-0.06
779.279	-0.05
779.713	-0.05
780.147	-0.05
780.581	-0.04
781.015	-0.04
781.449	-0.04
781.883	-0.04
782.317	-0.04
782.751	-0.04
783.185	-0.04
783.619	-0.04
784.053	-0.04
784.487	-0.04
784.921	-0.04
785.355	-0.04
785.789	-0.04
786.223	-0.04
786.656	-0.04
787.09	-0.03
787.524	-0.03
787.957	-0.03
788.391	-0.03
788.825	-0.04
789.258	-0.04
789.692	-0.03
790.125	-0.03
790.559	-0.03
790.992	-0.03
791.426	-0.04
791.859	-0.03
792.293	-0.02
792.726	-0.02
793.159	-0.01
793.593	-0.01
794.026	-0.01
794.459	-0.02
794.892	-0.02
795.326	-0.02
795.759	-0.02
796.192	-0.03
796.625	-0.03
797.058	-0.04
797.491	-0.05
797.924	-0.05
798.357	-0.05
798.79	-0.05
799.223	-0.05
799.656	-0.05
800.089	-0.05
800.522	-0.06
800.955	-0.06
801.387	-0.06
801.82	-0.06
802.253	-0.06
802.686	-0.06
803.118	-0.06
803.551	-0.06
803.984	-0.05
804.416	-0.05
804.849	-0.05
805.281	-0.04
805.714	-0.04
806.146	-0.04
806.579	-0.04
807.011	-0.04
807.444	-0.04
807.876	-0.04
808.308	-0.04
808.741	-0.05
809.173	-0.05
809.605	-0.06
810.037	-0.06
810.47	-0.06
810.902	-0.06
811.334	-0.06
811.766	-0.06
812.198	-0.05
812.63	-0.05
813.062	-0.05
813.494	-0.05
813.926	-0.05
814.358	-0.05
814.79	-0.05
815.222	-0.05
815.654	-0.04
816.086	-0.05
816.518	-0.05
816.949	-0.05
817.381	-0.05
817.813	-0.05
818.245	-0.05
818.676	-0.04
819.108	-0.04
819.54	-0.04
819.971	-0.05
820.403	-0.05
820.834	-0.05
821.266	-0.05
821.697	-0.05
822.129	-0.05
822.56	-0.05
822.991	-0.05
823.423	-0.05
823.854	-0.06
824.286	-0.06
824.717	-0.05
825.148	-0.05
825.579	-0.04
826.01	-0.04
826.442	-0.04
826.873	-0.03
827.304	-0.03
827.735	-0.02
828.166	-0.02
828.597	-0.01
829.028	-0.01
829.459	-0
829.89	0
830.321	0
830.752	0.01
831.183	0.02
831.613	0.02
832.044	0.03
832.475	0.03
832.906	0.03
833.336	0.04
833.767	0.04
834.198	0.05
834.628	0.05
835.059	0.05
835.49	0.05
835.92	0.06
836.351	0.06
836.781	0.06
837.212	0.06
837.642	0.06
838.072	0.06
838.503	0.07
838.933	0.07
839.364	0.07
839.794	0.07
840.224	0.07
840.654	0.08
841.085	0.08
841.515	0.08
841.945	0.08
842.375	0.09
842.805	0.09
843.235	0.09
843.665	0.09
844.095	0.1
844.525	0.1
844.955	0.1
845.385	0.1
845.815	0.11
846.245	0.11
846.675	0.11
847.105	0.11
847.534	0.12
847.964	0.12
848.394	0.12
848.824	0.13
849.253	0.13
849.683	0.13
850.112	0.13
850.542	0.13
850.972	0.13
851.401	0.14
851.831	0.14
852.26	0.14
852.69	0.14
853.119	0.14
853.548	0.14
853.978	0.14
854.407	0.14
854.836	0.15
855.266	0.15
855.695	0.15
856.124	0.15
856.553	0.15
856.983	0.15
857.412	0.16
857.841	0.16
858.27	0.16
858.699	0.16
859.128	0.16
859.557	0.16
859.986	0.16
860.415	0.16
860.844	0.16
861.273	0.16
861.702	0.17
862.13	0.17
862.559	0.17
862.988	0.17
863.417	0.17
863.845	0.17
864.274	0.17
864.703	0.18
865.131	0.18
865.56	0.18
865.989	0.18
866.417	0.18
866.846	0.18
867.274	0.18
867.703	0.18
868.131	0.19
868.559	0.19
868.988	0.19
869.416	0.19
869.844	0.19
870.273	0.19
870.701	0.19
871.129	0.19
871.557	0.19
871.986	0.19
872.414	0.19
872.842	0.19
873.27	0.19
873.698	0.19
874.126	0.19
874.554	0.19
874.982	0.19
875.41	0.19
875.838	0.2
876.266	0.2
876.694	0.2
877.122	0.2
877.549	0.2
877.977	0.2
878.405	0.2
878.833	0.2
879.26	0.2
879.688	0.2
880.116	0.19
880.543	0.19
880.971	0.19
881.399	0.19
881.826	0.19
882.254	0.19
882.681	0.19
883.109	0.19
883.536	0.19
883.963	0.19
884.391	0.19
884.818	0.19
885.245	0.19
885.673	0.19
886.1	0.2
886.527	0.2
886.954	0.2
887.381	0.2
887.809	0.2
888.236	0.2
888.663	0.2
889.09	0.2
889.517	0.2
889.944	0.2
890.371	0.2
890.798	0.2
891.225	0.2
891.652	0.2
892.078	0.2
892.505	0.2
892.932	0.2
893.359	0.2
893.786	0.2
894.212	0.2
894.639	0.2
895.066	0.2
895.492	0.21
895.919	0.21
896.346	0.21
896.772	0.21
897.199	0.21
897.625	0.21
898.052	0.21
898.478	0.21
898.904	0.21
899.331	0.21
899.757	0.21
900.183	0.21
900.61	0.21
901.036	0.21
901.462	0.21
901.888	0.21
902.315	0.21
902.741	0.21
903.167	0.21
903.593	0.21
904.019	0.21
904.445	0.21
904.871	0.21
905.297	0.21
905.723	0.21
906.149	0.21
906.575	0.21
907.001	0.21
907.427	0.21
907.852	0.21
908.278	0.21
908.704	0.21
909.13	0.21
909.555	0.21
909.981	0.21
910.407	0.21
910.832	0.21
911.258	0.21
911.684	0.21
912.109	0.21
912.535	0.21
912.96	0.21
913.386	0.21
913.811	0.21
914.236	0.21
914.662	0.21
915.087	0.21
915.512	0.21
915.938	0.21
916.363	0.21
916.788	0.21
917.213	0.21
917.639	0.21
918.064	0.21
918.489	0.22
918.914	0.22
919.339	0.22
919.764	0.22
920.189	0.22
920.614	0.22
921.039	0.22
921.464	0.22
921.889	0.22
922.314	0.22
922.738	0.22
923.163	0.22
923.588	0.22
924.013	0.22
924.437	0.22
924.862	0.22
925.287	0.22
925.711	0.22
926.136	0.22
926.561	0.23
926.985	0.23
927.41	0.23
927.834	0.23
928.259	0.23
928.683	0.23
929.108	0.23
929.532	0.23
929.956	0.23
930.381	0.23
930.805	0.23
931.229	0.23
931.653	0.24
932.078	0.24
932.502	0.24
932.926	0.24
933.35	0.24
933.774	0.24
934.198	0.24
934.622	0.24
935.046	0.24
935.47	0.25
935.894	0.25
936.318	0.25
936.742	0.25
937.166	0.26
937.59	0.26
938.014	0.26
938.437	0.27
938.861	0.27
939.285	0.27
939.709	0.28
940.132	0.28
940.556	0.28
940.98	0.29
941.403	0.29
941.827	0.29
942.25	0.3
942.674	0.3
943.097	0.3
943.521	0.3
943.944	0.3
944.368	0.3
944.791	0.3
945.214	0.3
945.638	0.3
946.061	0.3
946.484	0.3
946.907	0.3
947.331	0.3
947.754	0.29
948.177	0.29
948.6	0.29
949.023	0.29
949.446	0.29
949.869	0.28
950.292	0.28
950.715	0.28
951.138	0.27
951.561	0.27
951.984	0.27
952.407	0.27
952.83	0.27
953.252	0.26
953.675	0.26
954.098	0.26
954.521	0.26
954.943	0.26
955.366	0.26
955.789	0.26
956.211	0.26
956.634	0.26
957.056	0.26
957.479	0.26
957.902	0.26
958.324	0.26
958.746	0.26
959.169	0.25
959.591	0.25
960.014	0.25
960.436	0.25
960.858	0.25
961.281	0.25
961.703	0.25
962.125	0.25
962.547	0.25
962.969	0.25
963.391	0.25
963.814	0.25
964.236	0.25
964.658	0.25
965.08	0.25
965.502	0.25
965.924	0.25
966.346	0.25
966.768	0.25
967.189	0.25
967.611	0.25
968.033	0.25
968.455	0.25
968.877	0.25
969.298	0.25
969.72	0.25
970.142	0.25
970.563	0.25
970.985	0.25
971.407	0.25
971.828	0.25
972.25	0.25
972.671	0.26
973.093	0.26
973.514	0.26
973.936	0.26
974.357	0.26
974.778	0.26
975.2	0.26
975.621	0.26
976.042	0.26
976.464	0.25
976.885	0.25
977.306	0.25
977.727	0.25
978.148	0.25
978.57	0.25
978.991	0.25
979.412	0.25
979.833	0.25
980.254	0.25
980.675	0.26
981.096	0.26
981.517	0.26
981.937	0.26
982.358	0.26
982.779	0.26
983.2	0.26
983.621	0.26
984.042	0.26
984.462	0.26
984.883	0.26
985.304	0.26
985.724	0.26
986.145	0.26
986.565	0.26
986.986	0.26
987.407	0.26
987.827	0.27
988.248	0.27
988.668	0.27
989.088	0.27
989.509	0.27
989.929	0.27
990.35	0.27
990.77	0.27
991.19	0.27
991.61	0.27
992.031	0.27
992.451	0.27
992.871	0.27
993.291	0.27
993.711	0.27
994.131	0.27
994.551	0.27
994.971	0.27
995.391	0.27
995.811	0.27
996.231	0.27
996.651	0.27
997.071	0.27
997.491	0.27
997.911	0.27
998.331	0.28
998.75	0.28
999.17	0.28
999.59	0.28
1000.009	0.28
1000.429	0.28
1000.849	0.28
1001.268	0.28
1001.688	0.28
1002.107	0.28
1002.527	0.28
1002.946	0.28
1003.366	0.28
1003.785	0.28
1004.205	0.28
1004.624	0.28
1005.044	0.28
1005.463	0.28
1005.882	0.28
1006.301	0.28
1006.721	0.28
1007.14	0.28
1007.559	0.28
1007.978	0.28
1008.397	0.28
1008.816	0.28
1009.235	0.28
1009.655	0.29
1010.074	0.29
1010.492	0.29
1010.911	0.29
1011.33	0.29
1011.749	0.29
1012.168	0.29
1012.587	0.29
1013.006	0.29
1013.425	0.29
1013.843	0.3
1014.262	0.3
1014.681	0.3
1015.099	0.3
1015.518	0.3
1015.937	0.3
1016.355	0.3
1016.774	0.31
1017.192	0.31
1017.611	0.31
1018.029	0.31
1018.448	0.31
1018.866	0.32
1019.285	0.32
1019.703	0.32
1020.121	0.32
1020.54	0.32
1020.958	0.32
1021.376	0.32
1021.794	0.32
1022.213	0.32
1022.631	0.32
1023.049	0.32
1023.467	0.32
1023.885	0.32
1024.303	0.32
1024.721	0.32
1025.139	0.32
1025.557	0.32
1025.975	0.32
1026.393	0.33
1026.811	0.33
1027.229	0.33
1027.647	0.33
1028.065	0.33
1028.482	0.33
1028.9	0.34
1029.318	0.34
1029.735	0.34
1030.153	0.34
1030.571	0.34
1030.988	0.35
1031.406	0.35
1031.823	0.35
1032.241	0.35
1032.659	0.35
1033.076	0.36
1033.493	0.36
1033.911	0.36
1034.328	0.36
1034.746	0.36
1035.163	0.37
1035.58	0.37
1035.997	0.37
1036.415	0.38
1036.832	0.38
1037.249	0.39
1037.666	0.39
1038.083	0.39
1038.501	0.4
1038.918	0.4
1039.335	0.4
1039.752	0.41
1040.169	0.41
1040.586	0.41
1041.003	0.41
1041.419	0.42
1041.836	0.42
1042.253	0.42
1042.67	0.43
1043.087	0.43
1043.504	0.43
1043.92	0.44
1044.337	0.44
1044.754	0.45
1045.17	0.45
1045.587	0.46
1046.004	0.46
1046.42	0.46
1046.837	0.47
1047.253	0.47
1047.67	0.47
1048.086	0.47
1048.503	0.48
1048.919	0.48
1049.335	0.48
1049.752	0.48
1050.168	0.48
1050.584	0.48
1051.001	0.49
1051.417	0.49
1051.833	0.5
1052.249	0.5
1052.665	0.51
1053.081	0.51
1053.497	0.52
1053.914	0.52
1054.33	0.53
1054.746	0.53
1055.162	0.53
1055.578	0.53
1055.993	0.54
1056.409	0.54
1056.825	0.54
1057.241	0.55
1057.657	0.56
1058.073	0.56
1058.488	0.57
1058.904	0.58
1059.32	0.59
1059.736	0.6
1060.151	0.61
1060.567	0.62
1060.982	0.62
1061.398	0.63
1061.813	0.63
1062.229	0.64
1062.644	0.64
1063.06	0.65
1063.475	0.65
1063.891	0.66
1064.306	0.66
1064.721	0.67
1065.137	0.67
1065.552	0.68
1065.967	0.69
1066.382	0.7
1066.798	0.71
1067.213	0.72
1067.628	0.73
1068.043	0.73
1068.458	0.74
1068.873	0.75
1069.288	0.76
1069.703	0.77
1070.118	0.78
1070.533	0.79
1070.948	0.81
1071.363	0.82
1071.778	0.84
1072.193	0.87
1072.607	0.89
1073.022	0.91
1073.437	0.93
1073.852	0.95
1074.266	0.97
1074.681	0.99
1075.096	1.01
1075.51	1.04
1075.925	1.08
1076.339	1.13
1076.754	1.17
1077.168	1.23
1077.583	1.31
1077.997	1.39
1078.412	1.5
1078.826	1.65
1079.24	1.86
1079.655	2.28
1080.069	-0
1080.483	-0
1080.897	-0
1081.312	-0
1081.726	-0
1082.14	-0
1082.554	-0
1082.968	-0
1083.382	-0
1083.796	-0
1084.21	-0
1084.624	-0
1085.038	-0
1085.452	-0
1085.866	-0
1086.28	-0
1086.694	-0
1087.108	-0
1087.521	-0
1087.935	-0
1088.349	-0
1088.763	-0
1089.176	-0
1089.59	-0
1090.004	-0
1090.417	-0
1090.831	-0
1091.244	-0
1091.658	-0
1092.071	-0
1092.485	-0
1092.898	-0
1093.312	-0
1093.725	-0
1094.138	-0
1094.552	-0
1094.965	-0
1095.378	-0
1095.791	-0
1096.205	-0
1096.618	-0
1097.031	-0
1097.444	-0
1097.857	-0
1098.27	-0
1098.683	-0
1099.096	-0
1099.509	-0
1099.922	-0
1100.335	-0
1100.748	-0
1101.161	-0
1101.574	-0
1101.986	-0
1102.399	-0
1102.812	-0
1103.225	-0
1103.637	-0
1104.05	-0
1104.463	-0
1104.875	-0
1105.288	-0
1105.7	-0
1106.113	-0
1106.525	-0
1106.938	-0
1107.35	-0
1107.763	-0
1108.175	-0
1108.588	-0
1109	-0
1109.412	-0
1109.824	-0
1110.237	-0
1110.649	-0
1111.061	-0
