Data from redip-kinet-2-5a_Absorbance__12__00012.txt Node

Date: Fri Apr 12 13:45:54 CEST 2024
User: Laser008
Spectrometer: MAYP115816
Trigger mode: 0
Integration Time (sec): 2.000000E-1
Scans to average: 10
Electric dark correction enabled: true
Nonlinearity correction enabled: true
Boxcar width: 5
XAxis mode: Wavelengths
Number of Pixels in Spectrum: 2068
>>>>>Begin Spectral Data<<<<<
198.914	-2.5
199.384	-2.35
199.855	-2.2
200.325	-2.09
200.796	-2.02
201.266	-1.97
201.737	-1.89
202.207	-1.83
202.677	-1.77
203.147	-1.73
203.618	-1.7
204.088	-1.67
204.558	-1.65
205.028	-1.64
205.498	-1.64
205.968	-1.63
206.439	-1.63
206.909	-1.63
207.379	-1.62
207.849	-1.62
208.319	-1.62
208.789	-1.61
209.258	-1.61
209.728	-1.61
210.198	-1.61
210.668	-1.61
211.138	-1.61
211.608	-1.6
212.077	-1.6
212.547	-1.6
213.017	-1.6
213.486	-1.6
213.956	-1.6
214.426	-1.6
214.895	-1.6
215.365	-1.59
215.834	-1.59
216.304	-1.59
216.773	-1.59
217.243	-1.59
217.712	-1.58
218.181	-1.58
218.651	-1.58
219.12	-1.58
219.589	-1.58
220.058	-1.57
220.528	-1.57
220.997	-1.56
221.466	-1.56
221.935	-1.56
222.404	-1.55
222.873	-1.54
223.342	-1.54
223.812	-1.53
224.281	-1.52
224.749	-1.51
225.218	-1.51
225.687	-1.5
226.156	-1.49
226.625	-1.47
227.094	-1.46
227.563	-1.44
228.031	-1.42
228.5	-1.4
228.969	-1.38
229.438	-1.35
229.906	-1.32
230.375	-1.28
230.844	-1.24
231.312	-1.2
231.781	-1.16
232.249	-1.11
232.718	-1.07
233.186	-1.02
233.655	-0.97
234.123	-0.92
234.591	-0.87
235.06	-0.82
235.528	-0.77
235.996	-0.72
236.465	-0.68
236.933	-0.63
237.401	-0.59
237.869	-0.55
238.337	-0.51
238.805	-0.47
239.274	-0.44
239.742	-0.4
240.21	-0.37
240.678	-0.34
241.146	-0.31
241.614	-0.29
242.081	-0.27
242.549	-0.24
243.017	-0.22
243.485	-0.2
243.953	-0.18
244.421	-0.17
244.888	-0.15
245.356	-0.14
245.824	-0.12
246.291	-0.11
246.759	-0.1
247.227	-0.08
247.694	-0.07
248.162	-0.06
248.629	-0.05
249.097	-0.04
249.564	-0.04
250.032	-0.03
250.499	-0.02
250.967	-0.01
251.434	-0.01
251.901	0
252.369	0.01
252.836	0.01
253.303	0.02
253.77	0.03
254.237	0.03
254.705	0.03
255.172	0.04
255.639	0.04
256.106	0.05
256.573	0.05
257.04	0.05
257.507	0.06
257.974	0.06
258.441	0.06
258.908	0.06
259.375	0.07
259.841	0.07
260.308	0.07
260.775	0.07
261.242	0.07
261.709	0.07
262.175	0.08
262.642	0.08
263.109	0.08
263.575	0.08
264.042	0.08
264.508	0.08
264.975	0.08
265.441	0.08
265.908	0.08
266.374	0.08
266.841	0.08
267.307	0.08
267.773	0.08
268.24	0.08
268.706	0.08
269.172	0.08
269.639	0.08
270.105	0.08
270.571	0.08
271.037	0.08
271.503	0.08
271.969	0.08
272.435	0.08
272.902	0.08
273.368	0.08
273.834	0.07
274.3	0.07
274.765	0.07
275.231	0.07
275.697	0.07
276.163	0.07
276.629	0.07
277.095	0.07
277.56	0.06
278.026	0.06
278.492	0.06
278.958	0.06
279.423	0.06
279.889	0.06
280.354	0.06
280.82	0.06
281.286	0.06
281.751	0.06
282.217	0.06
282.682	0.06
283.147	0.06
283.613	0.06
284.078	0.06
284.544	0.06
285.009	0.06
285.474	0.06
285.939	0.06
286.405	0.06
286.87	0.05
287.335	0.05
287.8	0.05
288.265	0.05
288.73	0.05
289.195	0.05
289.66	0.05
290.125	0.05
290.59	0.05
291.055	0.05
291.52	0.05
291.985	0.05
292.45	0.05
292.915	0.05
293.38	0.05
293.844	0.05
294.309	0.05
294.774	0.05
295.239	0.05
295.703	0.05
296.168	0.05
296.632	0.05
297.097	0.05
297.562	0.05
298.026	0.05
298.491	0.05
298.955	0.05
299.419	0.05
299.884	0.05
300.348	0.05
300.813	0.05
301.277	0.05
301.741	0.05
302.205	0.05
302.67	0.05
303.134	0.05
303.598	0.05
304.062	0.05
304.526	0.05
304.99	0.05
305.454	0.05
305.919	0.05
306.383	0.05
306.847	0.05
307.31	0.05
307.774	0.05
308.238	0.05
308.702	0.05
309.166	0.05
309.63	0.05
310.094	0.05
310.557	0.05
311.021	0.05
311.485	0.05
311.948	0.05
312.412	0.05
312.876	0.05
313.339	0.05
313.803	0.05
314.266	0.05
314.73	0.05
315.193	0.05
315.657	0.05
316.12	0.05
316.584	0.05
317.047	0.05
317.51	0.05
317.973	0.05
318.437	0.05
318.9	0.05
319.363	0.05
319.826	0.05
320.29	0.04
320.753	0.04
321.216	0.04
321.679	0.04
322.142	0.04
322.605	0.04
323.068	0.04
323.531	0.04
323.994	0.04
324.457	0.04
324.92	0.04
325.382	0.04
325.845	0.04
326.308	0.04
326.771	0.04
327.233	0.04
327.696	0.04
328.159	0.04
328.622	0.04
329.084	0.04
329.547	0.04
330.009	0.04
330.472	0.04
330.934	0.04
331.397	0.04
331.859	0.04
332.322	0.04
332.784	0.04
333.246	0.04
333.709	0.04
334.171	0.03
334.633	0.03
335.096	0.03
335.558	0.03
336.02	0.03
336.482	0.03
336.944	0.03
337.406	0.03
337.868	0.03
338.331	0.03
338.793	0.03
339.255	0.03
339.717	0.03
340.178	0.03
340.64	0.03
341.102	0.03
341.564	0.03
342.026	0.03
342.488	0.03
342.949	0.03
343.411	0.03
343.873	0.03
344.335	0.03
344.796	0.03
345.258	0.03
345.719	0.03
346.181	0.02
346.643	0.02
347.104	0.02
347.566	0.02
348.027	0.02
348.488	0.02
348.95	0.02
349.411	0.02
349.873	0.02
350.334	0.02
350.795	0.02
351.256	0.02
351.718	0.02
352.179	0.01
352.64	0.01
353.101	0.01
353.562	0.01
354.023	0.01
354.484	0.01
354.945	0.01
355.406	0.01
355.867	0
356.328	0
356.789	0
357.25	0
357.711	0
358.172	0
358.633	0.01
359.093	0.01
359.554	0.01
360.015	0.01
360.476	0.01
360.936	0.01
361.397	0.01
361.858	0.01
362.318	0.01
362.779	0.01
363.239	0.01
363.7	0.01
364.16	0.01
364.621	0.01
365.081	0.01
365.541	0.01
366.002	0.01
366.462	0.01
366.922	0.01
367.383	0.01
367.843	0.01
368.303	0.01
368.763	0.01
369.223	0.01
369.684	0.01
370.144	0.01
370.604	0.01
371.064	0
371.524	0
371.984	0
372.444	0
372.904	0
373.363	0
373.823	0
374.283	0
374.743	0
375.203	0
375.663	0
376.122	0.01
376.582	0.01
377.042	0.01
377.501	0.01
377.961	0.01
378.42	0.01
378.88	0.01
379.34	0.01
379.799	0.01
380.259	0.01
380.718	0.01
381.177	0.01
381.637	0.01
382.096	0.01
382.555	0.01
383.015	0.01
383.474	0.01
383.933	0.01
384.393	0.01
384.852	0.01
385.311	0.01
385.77	0.01
386.229	0.01
386.688	0.01
387.147	0.01
387.606	0.01
388.065	0.01
388.524	0.01
388.983	0.01
389.442	0.01
389.901	0.01
390.36	0.01
390.819	0.01
391.277	0.01
391.736	0.01
392.195	0.01
392.654	0.01
393.112	0.01
393.571	0.01
394.03	0.01
394.488	0.01
394.947	0.01
395.405	0.01
395.864	0.01
396.322	0.01
396.781	0.01
397.239	0.01
397.698	0.01
398.156	0.01
398.614	0.01
399.073	0.01
399.531	0.01
399.989	0.01
400.447	0.01
400.905	0.01
401.364	0.01
401.822	0.01
402.28	0.01
402.738	0.01
403.196	0.01
403.654	0.01
404.112	0.01
404.57	0.01
405.028	0.01
405.486	0
405.944	0
406.402	0
406.859	0
407.317	0
407.775	0
408.233	0
408.691	0
409.148	0
409.606	0
410.064	0
410.521	0
410.979	0
411.436	0
411.894	0
412.351	0
412.809	0
413.266	0
413.724	0
414.181	0
414.638	0
415.096	-0
415.553	-0
416.01	-0
416.467	-0
416.925	-0
417.382	-0
417.839	-0
418.296	-0
418.753	-0
419.21	-0
419.667	0
420.124	0
420.581	0
421.038	0
421.495	0
421.952	0
422.409	0
422.866	0.01
423.322	0.01
423.779	0
424.236	0
424.693	0
425.149	0
425.606	0
426.063	-0
426.519	-0
426.976	-0
427.433	-0
427.889	0
428.346	0
428.802	0
429.258	0
429.715	0
430.171	0
430.628	0
431.084	0
431.54	0
431.997	0
432.453	-0
432.909	-0
433.365	-0
433.821	-0
434.277	-0
434.734	-0
435.19	-0
435.646	-0
436.102	-0
436.558	-0
437.014	-0
437.47	-0
437.925	-0
438.381	-0
438.837	-0.01
439.293	-0.01
439.749	-0.01
440.205	-0.01
440.66	-0.01
441.116	-0.01
441.572	-0.01
442.027	-0
442.483	-0
442.939	-0
443.394	-0
443.85	-0
444.305	-0
444.761	-0
445.216	-0
445.672	-0
446.127	-0
446.582	-0
447.038	-0
447.493	-0
447.948	-0
448.403	-0
448.859	-0
449.314	-0
449.769	-0.01
450.224	-0.01
450.679	-0.01
451.134	-0.01
451.589	-0.01
452.044	-0.01
452.499	-0.01
452.954	-0.01
453.409	-0.01
453.864	-0.01
454.319	-0.01
454.774	-0.02
455.229	-0.02
455.684	-0.02
456.138	-0.02
456.593	-0.02
457.048	-0.02
457.503	-0.02
457.957	-0.02
458.412	-0.02
458.866	-0.02
459.321	-0.02
459.776	-0.02
460.23	-0.02
460.685	-0.02
461.139	-0.02
461.593	-0.02
462.048	-0.02
462.502	-0.02
462.957	-0.02
463.411	-0.02
463.865	-0.02
464.319	-0.02
464.774	-0.02
465.228	-0.02
465.682	-0.02
466.136	-0.02
466.59	-0.02
467.044	-0.02
467.499	-0.03
467.953	-0.03
468.407	-0.03
468.861	-0.03
469.315	-0.04
469.768	-0.04
470.222	-0.04
470.676	-0.04
471.13	-0.04
471.584	-0.04
472.038	-0.04
472.491	-0.04
472.945	-0.04
473.399	-0.04
473.852	-0.04
474.306	-0.04
474.76	-0.04
475.213	-0.04
475.667	-0.04
476.12	-0.04
476.574	-0.04
477.027	-0.04
477.481	-0.04
477.934	-0.04
478.388	-0.04
478.841	-0.04
479.294	-0.04
479.748	-0.04
480.201	-0.04
480.654	-0.04
481.107	-0.04
481.561	-0.04
482.014	-0.04
482.467	-0.03
482.92	-0.03
483.373	-0.03
483.826	-0.03
484.279	-0.02
484.732	-0.02
485.185	-0.02
485.638	-0.02
486.091	-0.02
486.544	-0.02
486.997	-0.02
487.449	-0.02
487.902	-0.02
488.355	-0.03
488.808	-0.03
489.26	-0.03
489.713	-0.04
490.166	-0.04
490.618	-0.04
491.071	-0.04
491.523	-0.05
491.976	-0.05
492.429	-0.05
492.881	-0.05
493.333	-0.05
493.786	-0.05
494.238	-0.05
494.691	-0.04
495.143	-0.04
495.595	-0.04
496.048	-0.04
496.5	-0.05
496.952	-0.05
497.404	-0.05
497.856	-0.05
498.309	-0.05
498.761	-0.05
499.213	-0.05
499.665	-0.05
500.117	-0.05
500.569	-0.05
501.021	-0.05
501.473	-0.05
501.925	-0.05
502.377	-0.05
502.828	-0.05
503.28	-0.05
503.732	-0.05
504.184	-0.05
504.636	-0.05
505.087	-0.05
505.539	-0.05
505.991	-0.05
506.442	-0.05
506.894	-0.06
507.345	-0.06
507.797	-0.06
508.249	-0.06
508.7	-0.06
509.151	-0.06
509.603	-0.06
510.054	-0.06
510.506	-0.06
510.957	-0.06
511.408	-0.07
511.86	-0.07
512.311	-0.07
512.762	-0.07
513.213	-0.07
513.665	-0.07
514.116	-0.08
514.567	-0.08
515.018	-0.08
515.469	-0.08
515.92	-0.08
516.371	-0.08
516.822	-0.08
517.273	-0.08
517.724	-0.08
518.175	-0.08
518.626	-0.08
519.076	-0.09
519.527	-0.09
519.978	-0.09
520.429	-0.09
520.88	-0.09
521.33	-0.1
521.781	-0.1
522.232	-0.11
522.682	-0.11
523.133	-0.12
523.583	-0.12
524.034	-0.12
524.484	-0.12
524.935	-0.12
525.385	-0.12
525.836	-0.12
526.286	-0.11
526.736	-0.1
527.187	-0.1
527.637	-0.09
528.087	-0.09
528.538	-0.08
528.988	-0.08
529.438	-0.08
529.888	-0.07
530.338	-0.07
530.788	-0.07
531.238	-0.06
531.688	-0.06
532.139	-0.06
532.589	-0.06
533.038	-0.06
533.488	-0.06
533.938	-0.06
534.388	-0.05
534.838	-0.05
535.288	-0.05
535.738	-0.05
536.187	-0.05
536.637	-0.05
537.087	-0.05
537.537	-0.05
537.986	-0.05
538.436	-0.05
538.885	-0.04
539.335	-0.04
539.785	-0.04
540.234	-0.04
540.684	-0.04
541.133	-0.04
541.582	-0.04
542.032	-0.04
542.481	-0.04
542.931	-0.04
543.38	-0.04
543.829	-0.04
544.278	-0.04
544.728	-0.03
545.177	-0.03
545.626	-0.03
546.075	-0.03
546.524	-0.03
546.973	-0.03
547.422	-0.03
547.871	-0.03
548.32	-0.03
548.769	-0.03
549.218	-0.03
549.667	-0.03
550.116	-0.03
550.565	-0.03
551.014	-0.03
551.463	-0.03
551.911	-0.03
552.36	-0.03
552.809	-0.03
553.258	-0.03
553.706	-0.03
554.155	-0.02
554.603	-0.02
555.052	-0.03
555.501	-0.03
555.949	-0.03
556.398	-0.03
556.846	-0.03
557.294	-0.03
557.743	-0.03
558.191	-0.03
558.64	-0.03
559.088	-0.03
559.536	-0.03
559.985	-0.03
560.433	-0.03
560.881	-0.02
561.329	-0.02
561.777	-0.02
562.225	-0.02
562.674	-0.01
563.122	-0.01
563.57	-0.02
564.018	-0.02
564.466	-0.02
564.914	-0.02
565.362	-0.02
565.809	-0.02
566.257	-0.01
566.705	-0.01
567.153	-0.01
567.601	-0
568.048	0
568.496	0.01
568.944	0.01
569.392	0.02
569.839	0.03
570.287	0.03
570.734	0.04
571.182	0.04
571.63	0.04
572.077	0.05
572.525	0.05
572.972	0.05
573.419	0.06
573.867	0.06
574.314	0.06
574.761	0.06
575.209	0.06
575.656	0.07
576.103	0.07
576.551	0.07
576.998	0.07
577.445	0.07
577.892	0.07
578.339	0.07
578.786	0.07
579.233	0.07
579.68	0.08
580.127	0.08
580.574	0.08
581.021	0.08
581.468	0.07
581.915	0.07
582.362	0.07
582.809	0.08
583.255	0.08
583.702	0.08
584.149	0.08
584.596	0.07
585.042	0.07
585.489	0.07
585.936	0.07
586.382	0.07
586.829	0.07
587.275	0.07
587.722	0.07
588.168	0.06
588.615	0.06
589.061	0.06
589.508	0.06
589.954	0.06
590.4	0.05
590.847	0.06
591.293	0.06
591.739	0.06
592.185	0.06
592.632	0.06
593.078	0.06
593.524	0.06
593.97	0.06
594.416	0.06
594.862	0.06
595.308	0.06
595.754	0.06
596.2	0.05
596.646	0.05
597.092	0.06
597.538	0.06
597.984	0.06
598.43	0.07
598.876	0.07
599.321	0.07
599.767	0.07
600.213	0.07
600.659	0.07
601.104	0.07
601.55	0.06
601.995	0.06
602.441	0.06
602.887	0.06
603.332	0.06
603.778	0.06
604.223	0.06
604.668	0.06
605.114	0.06
605.559	0.06
606.005	0.07
606.45	0.06
606.895	0.06
607.341	0.06
607.786	0.06
608.231	0.06
608.676	0.06
609.121	0.06
609.566	0.06
610.012	0.06
610.457	0.05
610.902	0.05
611.347	0.05
611.792	0.05
612.237	0.05
612.682	0.05
613.127	0.06
613.571	0.06
614.016	0.06
614.461	0.05
614.906	0.05
615.351	0.05
615.795	0.05
616.24	0.05
616.685	0.05
617.129	0.04
617.574	0.04
618.019	0.03
618.463	0.03
618.908	0.03
619.352	0.03
619.797	0.03
620.241	0.03
620.686	0.03
621.13	0.03
621.574	0.03
622.019	0.03
622.463	0.03
622.907	0.03
623.352	0.03
623.796	0.03
624.24	0.03
624.684	0.03
625.128	0.03
625.572	0.03
626.016	0.03
626.461	0.02
626.905	0.02
627.349	0.02
627.793	0.02
628.236	0.02
628.68	0.02
629.124	0.02
629.568	0.01
630.012	0.01
630.456	0.01
630.9	0.01
631.343	0.01
631.787	0.01
632.231	0
632.674	0
633.118	-0
633.562	-0
634.005	-0
634.449	0
634.892	0
635.336	0
635.779	0
636.223	0
636.666	0
637.109	0
637.553	0
637.996	0
638.439	0
638.883	0
639.326	-0
639.769	-0
640.212	-0
640.655	-0
641.099	-0
641.542	-0
641.985	-0
642.428	-0
642.871	-0
643.314	-0
643.757	-0
644.2	-0
644.643	-0
645.085	0
645.528	0
645.971	0
646.414	0.01
646.857	0.01
647.299	0.01
647.742	0.01
648.185	0.01
648.627	0.01
649.07	0.01
649.513	0.01
649.955	0.02
650.398	0.02
650.84	0.02
651.283	0.02
651.725	0.01
652.168	0.01
652.61	0.01
653.052	0.02
653.495	0.02
653.937	0.03
654.379	0.04
654.821	0.04
655.264	0.04
655.706	0.04
656.148	0.04
656.59	0.04
657.032	0.04
657.474	0.04
657.916	0.04
658.358	0.04
658.8	0.03
659.242	0.03
659.684	0.02
660.126	0.02
660.568	0.02
661.01	0.02
661.452	0.01
661.894	0.01
662.335	0.02
662.777	0.02
663.219	0.02
663.661	0.02
664.102	0.02
664.544	0.02
664.985	0.02
665.427	0.02
665.869	0.02
666.31	0.02
666.752	0.02
667.193	0.02
667.634	0.02
668.076	0.02
668.517	0.03
668.959	0.03
669.4	0.03
669.841	0.03
670.282	0.03
670.724	0.03
671.165	0.03
671.606	0.03
672.047	0.03
672.488	0.03
672.929	0.03
673.37	0.03
673.811	0.03
674.252	0.03
674.693	0.03
675.134	0.03
675.575	0.03
676.016	0.03
676.457	0.03
676.898	0.03
677.339	0.03
677.78	0.03
678.22	0.03
678.661	0.04
679.102	0.04
679.542	0.04
679.983	0.04
680.424	0.04
680.864	0.04
681.305	0.04
681.745	0.04
682.186	0.04
682.626	0.04
683.067	0.04
683.507	0.05
683.948	0.05
684.388	0.05
684.828	0.05
685.269	0.05
685.709	0.05
686.149	0.05
686.589	0.05
687.029	0.05
687.47	0.05
687.91	0.05
688.35	0.05
688.79	0.05
689.23	0.05
689.67	0.06
690.11	0.06
690.55	0.06
690.99	0.06
691.43	0.06
691.87	0.06
692.31	0.06
692.749	0.06
693.189	0.06
693.629	0.06
694.069	0.06
694.508	0.06
694.948	0.07
695.388	0.07
695.827	0.07
696.267	0.07
696.706	0.07
697.146	0.07
697.586	0.07
698.025	0.07
698.464	0.07
698.904	0.07
699.343	0.07
699.783	0.07
700.222	0.07
700.661	0.07
701.101	0.07
701.54	0.07
701.979	0.07
702.418	0.07
702.857	0.07
703.297	0.07
703.736	0.07
704.175	0.08
704.614	0.08
705.053	0.08
705.492	0.08
705.931	0.08
706.37	0.08
706.809	0.08
707.248	0.08
707.687	0.08
708.125	0.08
708.564	0.08
709.003	0.08
709.442	0.08
709.88	0.08
710.319	0.08
710.758	0.08
711.196	0.08
711.635	0.08
712.074	0.08
712.512	0.08
712.951	0.08
713.389	0.08
713.828	0.08
714.266	0.08
714.705	0.08
715.143	0.08
715.581	0.07
716.02	0.07
716.458	0.07
716.896	0.07
717.334	0.07
717.773	0.07
718.211	0.07
718.649	0.07
719.087	0.07
719.525	0.07
719.963	0.07
720.401	0.07
720.839	0.07
721.277	0.07
721.715	0.07
722.153	0.06
722.591	0.06
723.029	0.06
723.467	0.06
723.905	0.06
724.342	0.06
724.78	0.06
725.218	0.06
725.656	0.06
726.093	0.06
726.531	0.06
726.969	0.06
727.406	0.06
727.844	0.06
728.281	0.06
728.719	0.06
729.156	0.06
729.594	0.06
730.031	0.06
730.469	0.06
730.906	0.06
731.343	0.06
731.781	0.06
732.218	0.06
732.655	0.06
733.092	0.06
733.53	0.06
733.967	0.06
734.404	0.05
734.841	0.05
735.278	0.05
735.715	0.05
736.152	0.05
736.589	0.05
737.026	0.05
737.463	0.05
737.9	0.04
738.337	0.04
738.774	0.04
739.211	0.04
739.647	0.03
740.084	0.03
740.521	0.03
740.958	0.03
741.394	0.02
741.831	0.01
742.268	0.01
742.704	0
743.141	-0
743.577	-0
744.014	-0.01
744.45	-0.01
744.887	-0.01
745.323	-0.01
745.76	-0.01
746.196	-0.01
746.632	-0.01
747.069	-0
747.505	-0
747.941	0
748.378	0
748.814	0
749.25	0.01
749.686	0.01
750.122	0.01
750.558	0.01
750.994	0.01
751.43	0.01
751.866	0.01
752.302	0.01
752.738	0.01
753.174	0.01
753.61	0.01
754.046	0.01
754.482	0.02
754.918	0.02
755.354	0.02
755.789	0.02
756.225	0.02
756.661	0.02
757.096	0.02
757.532	0.02
757.968	0.02
758.403	0.02
758.839	0.02
759.274	0.02
759.71	0.02
760.145	0.01
760.581	0.01
761.016	0
761.452	0
761.887	-0
762.322	-0
762.758	0
763.193	0
763.628	-0
764.063	-0.01
764.499	-0.01
764.934	-0.01
765.369	-0.02
765.804	-0.02
766.239	-0.01
766.674	-0.01
767.109	-0.01
767.544	-0.02
767.979	-0.03
768.414	-0.03
768.849	-0.03
769.284	-0.03
769.719	-0.02
770.154	-0.03
770.588	-0.03
771.023	-0.03
771.458	-0.04
771.893	-0.04
772.327	-0.04
772.762	-0.04
773.197	-0.04
773.631	-0.05
774.066	-0.05
774.5	-0.05
774.935	-0.05
775.369	-0.05
775.804	-0.05
776.238	-0.05
776.673	-0.05
777.107	-0.05
777.541	-0.05
777.976	-0.05
778.41	-0.05
778.844	-0.04
779.279	-0.04
779.713	-0.03
780.147	-0.03
780.581	-0.03
781.015	-0.02
781.449	-0.02
781.883	-0.02
782.317	-0.02
782.751	-0.02
783.185	-0.02
783.619	-0.02
784.053	-0.02
784.487	-0.03
784.921	-0.03
785.355	-0.03
785.789	-0.03
786.223	-0.03
786.656	-0.02
787.09	-0.02
787.524	-0.02
787.957	-0.02
788.391	-0.02
788.825	-0.02
789.258	-0.02
789.692	-0.02
790.125	-0.02
790.559	-0.02
790.992	-0.02
791.426	-0.02
791.859	-0.02
792.293	-0.01
792.726	-0
793.159	0
793.593	0
794.026	0
794.459	-0
794.892	-0.01
795.326	-0.01
795.759	-0.01
796.192	-0.01
796.625	-0.02
797.058	-0.03
797.491	-0.03
797.924	-0.04
798.357	-0.04
798.79	-0.04
799.223	-0.04
799.656	-0.04
800.089	-0.04
800.522	-0.04
800.955	-0.04
801.387	-0.04
801.82	-0.04
802.253	-0.04
802.686	-0.04
803.118	-0.04
803.551	-0.04
803.984	-0.04
804.416	-0.03
804.849	-0.03
805.281	-0.03
805.714	-0.03
806.146	-0.03
806.579	-0.03
807.011	-0.03
807.444	-0.03
807.876	-0.03
808.308	-0.03
808.741	-0.03
809.173	-0.04
809.605	-0.04
810.037	-0.04
810.47	-0.04
810.902	-0.05
811.334	-0.05
811.766	-0.04
812.198	-0.04
812.63	-0.04
813.062	-0.04
813.494	-0.04
813.926	-0.04
814.358	-0.04
814.79	-0.03
815.222	-0.03
815.654	-0.03
816.086	-0.03
816.518	-0.03
816.949	-0.04
817.381	-0.04
817.813	-0.04
818.245	-0.03
818.676	-0.03
819.108	-0.03
819.54	-0.03
819.971	-0.03
820.403	-0.03
820.834	-0.03
821.266	-0.03
821.697	-0.03
822.129	-0.03
822.56	-0.03
822.991	-0.03
823.423	-0.04
823.854	-0.04
824.286	-0.04
824.717	-0.04
825.148	-0.03
825.579	-0.03
826.01	-0.02
826.442	-0.02
826.873	-0.02
827.304	-0.02
827.735	-0.02
828.166	-0.02
828.597	-0.01
829.028	-0.01
829.459	-0.01
829.89	-0.01
830.321	-0.01
830.752	-0
831.183	0
831.613	0.01
832.044	0.02
832.475	0.02
832.906	0.03
833.336	0.03
833.767	0.04
834.198	0.04
834.628	0.05
835.059	0.05
835.49	0.05
835.92	0.05
836.351	0.06
836.781	0.06
837.212	0.06
837.642	0.06
838.072	0.06
838.503	0.07
838.933	0.07
839.364	0.07
839.794	0.07
840.224	0.07
840.654	0.08
841.085	0.08
841.515	0.08
841.945	0.09
842.375	0.09
842.805	0.1
843.235	0.1
843.665	0.1
844.095	0.1
844.525	0.11
844.955	0.11
845.385	0.11
845.815	0.12
846.245	0.12
846.675	0.12
847.105	0.13
847.534	0.13
847.964	0.14
848.394	0.14
848.824	0.14
849.253	0.14
849.683	0.15
850.112	0.15
850.542	0.15
850.972	0.15
851.401	0.16
851.831	0.16
852.26	0.16
852.69	0.16
853.119	0.16
853.548	0.16
853.978	0.17
854.407	0.17
854.836	0.17
855.266	0.17
855.695	0.18
856.124	0.18
856.553	0.18
856.983	0.18
857.412	0.18
857.841	0.18
858.27	0.18
858.699	0.19
859.128	0.19
859.557	0.19
859.986	0.19
860.415	0.19
860.844	0.19
861.273	0.19
861.702	0.2
862.13	0.2
862.559	0.2
862.988	0.2
863.417	0.2
863.845	0.2
864.274	0.21
864.703	0.21
865.131	0.21
865.56	0.21
865.989	0.21
866.417	0.21
866.846	0.21
867.274	0.22
867.703	0.22
868.131	0.22
868.559	0.22
868.988	0.22
869.416	0.22
869.844	0.23
870.273	0.23
870.701	0.23
871.129	0.23
871.557	0.23
871.986	0.23
872.414	0.23
872.842	0.23
873.27	0.23
873.698	0.23
874.126	0.23
874.554	0.23
874.982	0.23
875.41	0.23
875.838	0.24
876.266	0.24
876.694	0.24
877.122	0.24
877.549	0.24
877.977	0.24
878.405	0.24
878.833	0.24
879.26	0.24
879.688	0.24
880.116	0.24
880.543	0.23
880.971	0.23
881.399	0.23
881.826	0.23
882.254	0.23
882.681	0.23
883.109	0.23
883.536	0.23
883.963	0.23
884.391	0.23
884.818	0.23
885.245	0.24
885.673	0.24
886.1	0.24
886.527	0.24
886.954	0.24
887.381	0.24
887.809	0.24
888.236	0.24
888.663	0.24
889.09	0.24
889.517	0.24
889.944	0.24
890.371	0.25
890.798	0.25
891.225	0.25
891.652	0.25
892.078	0.25
892.505	0.25
892.932	0.25
893.359	0.25
893.786	0.25
894.212	0.25
894.639	0.25
895.066	0.25
895.492	0.25
895.919	0.25
896.346	0.25
896.772	0.25
897.199	0.25
897.625	0.25
898.052	0.25
898.478	0.26
898.904	0.26
899.331	0.26
899.757	0.26
900.183	0.26
900.61	0.26
901.036	0.26
901.462	0.26
901.888	0.26
902.315	0.26
902.741	0.26
903.167	0.26
903.593	0.26
904.019	0.26
904.445	0.26
904.871	0.26
905.297	0.26
905.723	0.26
906.149	0.26
906.575	0.26
907.001	0.26
907.427	0.26
907.852	0.26
908.278	0.26
908.704	0.26
909.13	0.26
909.555	0.26
909.981	0.26
910.407	0.26
910.832	0.26
911.258	0.26
911.684	0.26
912.109	0.26
912.535	0.26
912.96	0.26
913.386	0.26
913.811	0.26
914.236	0.26
914.662	0.26
915.087	0.26
915.512	0.26
915.938	0.26
916.363	0.26
916.788	0.26
917.213	0.26
917.639	0.26
918.064	0.27
918.489	0.27
918.914	0.27
919.339	0.27
919.764	0.27
920.189	0.27
920.614	0.27
921.039	0.27
921.464	0.27
921.889	0.27
922.314	0.27
922.738	0.27
923.163	0.27
923.588	0.27
924.013	0.27
924.437	0.27
924.862	0.27
925.287	0.27
925.711	0.27
926.136	0.27
926.561	0.27
926.985	0.28
927.41	0.28
927.834	0.28
928.259	0.28
928.683	0.28
929.108	0.28
929.532	0.28
929.956	0.28
930.381	0.29
930.805	0.29
931.229	0.29
931.653	0.29
932.078	0.29
932.502	0.29
932.926	0.29
933.35	0.29
933.774	0.3
934.198	0.3
934.622	0.3
935.046	0.3
935.47	0.3
935.894	0.3
936.318	0.31
936.742	0.31
937.166	0.31
937.59	0.32
938.014	0.32
938.437	0.33
938.861	0.33
939.285	0.34
939.709	0.34
940.132	0.35
940.556	0.35
940.98	0.36
941.403	0.36
941.827	0.37
942.25	0.37
942.674	0.37
943.097	0.37
943.521	0.38
943.944	0.38
944.368	0.38
944.791	0.38
945.214	0.38
945.638	0.38
946.061	0.38
946.484	0.38
946.907	0.38
947.331	0.37
947.754	0.37
948.177	0.37
948.6	0.36
949.023	0.36
949.446	0.35
949.869	0.35
950.292	0.34
950.715	0.34
951.138	0.34
951.561	0.33
951.984	0.33
952.407	0.33
952.83	0.32
953.252	0.32
953.675	0.32
954.098	0.32
954.521	0.32
954.943	0.32
955.366	0.32
955.789	0.32
956.211	0.32
956.634	0.32
957.056	0.31
957.479	0.31
957.902	0.31
958.324	0.31
958.746	0.31
959.169	0.31
959.591	0.31
960.014	0.31
960.436	0.31
960.858	0.3
961.281	0.3
961.703	0.3
962.125	0.3
962.547	0.3
962.969	0.3
963.391	0.3
963.814	0.3
964.236	0.3
964.658	0.3
965.08	0.3
965.502	0.3
965.924	0.29
966.346	0.29
966.768	0.29
967.189	0.29
967.611	0.29
968.033	0.29
968.455	0.29
968.877	0.29
969.298	0.3
969.72	0.3
970.142	0.3
970.563	0.3
970.985	0.3
971.407	0.3
971.828	0.3
972.25	0.3
972.671	0.3
973.093	0.3
973.514	0.3
973.936	0.3
974.357	0.3
974.778	0.3
975.2	0.3
975.621	0.3
976.042	0.29
976.464	0.29
976.885	0.29
977.306	0.29
977.727	0.29
978.148	0.29
978.57	0.29
978.991	0.29
979.412	0.29
979.833	0.29
980.254	0.29
980.675	0.29
981.096	0.29
981.517	0.29
981.937	0.29
982.358	0.29
982.779	0.29
983.2	0.29
983.621	0.29
984.042	0.29
984.462	0.29
984.883	0.29
985.304	0.29
985.724	0.29
986.145	0.29
986.565	0.29
986.986	0.29
987.407	0.29
987.827	0.29
988.248	0.29
988.668	0.29
989.088	0.29
989.509	0.29
989.929	0.29
990.35	0.29
990.77	0.3
991.19	0.3
991.61	0.3
992.031	0.3
992.451	0.29
992.871	0.29
993.291	0.29
993.711	0.29
994.131	0.29
994.551	0.29
994.971	0.29
995.391	0.29
995.811	0.29
996.231	0.29
996.651	0.29
997.071	0.29
997.491	0.29
997.911	0.29
998.331	0.29
998.75	0.29
999.17	0.29
999.59	0.29
1000.009	0.29
1000.429	0.29
1000.849	0.29
1001.268	0.29
1001.688	0.29
1002.107	0.29
1002.527	0.29
1002.946	0.29
1003.366	0.29
1003.785	0.29
1004.205	0.29
1004.624	0.29
1005.044	0.29
1005.463	0.29
1005.882	0.29
1006.301	0.29
1006.721	0.29
1007.14	0.29
1007.559	0.29
1007.978	0.29
1008.397	0.29
1008.816	0.29
1009.235	0.29
1009.655	0.29
1010.074	0.29
1010.492	0.29
1010.911	0.29
1011.33	0.29
1011.749	0.29
1012.168	0.29
1012.587	0.29
1013.006	0.29
1013.425	0.29
1013.843	0.29
1014.262	0.29
1014.681	0.29
1015.099	0.29
1015.518	0.29
1015.937	0.29
1016.355	0.3
1016.774	0.3
1017.192	0.3
1017.611	0.3
1018.029	0.3
1018.448	0.3
1018.866	0.3
1019.285	0.3
1019.703	0.3
1020.121	0.3
1020.54	0.3
1020.958	0.3
1021.376	0.3
1021.794	0.3
1022.213	0.3
1022.631	0.3
1023.049	0.3
1023.467	0.3
1023.885	0.3
1024.303	0.3
1024.721	0.3
1025.139	0.3
1025.557	0.3
1025.975	0.3
1026.393	0.3
1026.811	0.3
1027.229	0.3
1027.647	0.3
1028.065	0.3
1028.482	0.31
1028.9	0.31
1029.318	0.31
1029.735	0.31
1030.153	0.31
1030.571	0.31
1030.988	0.31
1031.406	0.31
1031.823	0.31
1032.241	0.32
1032.659	0.32
1033.076	0.32
1033.493	0.32
1033.911	0.32
1034.328	0.32
1034.746	0.32
1035.163	0.33
1035.58	0.33
1035.997	0.33
1036.415	0.33
1036.832	0.34
1037.249	0.34
1037.666	0.34
1038.083	0.34
1038.501	0.35
1038.918	0.35
1039.335	0.35
1039.752	0.35
1040.169	0.35
1040.586	0.36
1041.003	0.36
1041.419	0.36
1041.836	0.36
1042.253	0.36
1042.67	0.36
1043.087	0.36
1043.504	0.37
1043.92	0.37
1044.337	0.37
1044.754	0.38
1045.17	0.38
1045.587	0.38
1046.004	0.39
1046.42	0.39
1046.837	0.39
1047.253	0.39
1047.67	0.4
1048.086	0.4
1048.503	0.4
1048.919	0.4
1049.335	0.4
1049.752	0.4
1050.168	0.41
1050.584	0.41
1051.001	0.41
1051.417	0.42
1051.833	0.42
1052.249	0.43
1052.665	0.43
1053.081	0.44
1053.497	0.44
1053.914	0.45
1054.33	0.45
1054.746	0.45
1055.162	0.46
1055.578	0.46
1055.993	0.46
1056.409	0.46
1056.825	0.47
1057.241	0.47
1057.657	0.48
1058.073	0.48
1058.488	0.49
1058.904	0.5
1059.32	0.5
1059.736	0.51
1060.151	0.52
1060.567	0.53
1060.982	0.53
1061.398	0.54
1061.813	0.54
1062.229	0.54
1062.644	0.55
1063.06	0.55
1063.475	0.56
1063.891	0.57
1064.306	0.57
1064.721	0.58
1065.137	0.59
1065.552	0.6
1065.967	0.61
1066.382	0.62
1066.798	0.62
1067.213	0.63
1067.628	0.64
1068.043	0.65
1068.458	0.66
1068.873	0.67
1069.288	0.68
1069.703	0.69
1070.118	0.7
1070.533	0.71
1070.948	0.73
1071.363	0.74
1071.778	0.76
1072.193	0.78
1072.607	0.81
1073.022	0.83
1073.437	0.86
1073.852	0.88
1074.266	0.91
1074.681	0.93
1075.096	0.97
1075.51	1
1075.925	1.05
1076.339	1.1
1076.754	1.16
1077.168	1.22
1077.583	1.3
1077.997	1.4
1078.412	1.53
1078.826	1.72
1079.24	2.08
1079.655	-0
1080.069	-0
1080.483	-0
1080.897	-0
1081.312	-0
1081.726	-0
1082.14	-0
1082.554	-0
1082.968	-0
1083.382	-0
1083.796	-0
1084.21	-0
1084.624	-0
1085.038	-0
1085.452	-0
1085.866	-0
1086.28	-0
1086.694	-0
1087.108	-0
1087.521	-0
1087.935	-0
1088.349	-0
1088.763	-0
1089.176	-0
1089.59	-0
1090.004	-0
1090.417	-0
1090.831	-0
1091.244	-0
1091.658	-0
1092.071	-0
1092.485	-0
1092.898	-0
1093.312	-0
1093.725	-0
1094.138	-0
1094.552	-0
1094.965	-0
1095.378	-0
1095.791	-0
1096.205	-0
1096.618	-0
1097.031	-0
1097.444	-0
1097.857	-0
1098.27	-0
1098.683	-0
1099.096	-0
1099.509	-0
1099.922	-0
1100.335	-0
1100.748	-0
1101.161	-0
1101.574	-0
1101.986	-0
1102.399	-0
1102.812	-0
1103.225	-0
1103.637	-0
1104.05	-0
1104.463	-0
1104.875	-0
1105.288	-0
1105.7	-0
1106.113	-0
1106.525	-0
1106.938	-0
1107.35	-0
1107.763	-0
1108.175	-0
1108.588	-0
1109	-0
1109.412	-0
1109.824	-0
1110.237	-0
1110.649	-0
1111.061	-0
