Data from redip-kinet-2-5a_Absorbance__8__00008.txt Node

Date: Fri Apr 12 13:45:46 CEST 2024
User: Laser008
Spectrometer: MAYP115816
Trigger mode: 0
Integration Time (sec): 2.000000E-1
Scans to average: 10
Electric dark correction enabled: true
Nonlinearity correction enabled: true
Boxcar width: 5
XAxis mode: Wavelengths
Number of Pixels in Spectrum: 2068
>>>>>Begin Spectral Data<<<<<
198.914	-2.52
199.384	-2.36
199.855	-2.22
200.325	-2.11
200.796	-2.03
201.266	-1.98
201.737	-1.9
202.207	-1.84
202.677	-1.79
203.147	-1.74
203.618	-1.71
204.088	-1.69
204.558	-1.67
205.028	-1.66
205.498	-1.65
205.968	-1.65
206.439	-1.65
206.909	-1.64
207.379	-1.64
207.849	-1.63
208.319	-1.63
208.789	-1.63
209.258	-1.63
209.728	-1.62
210.198	-1.62
210.668	-1.62
211.138	-1.62
211.608	-1.61
212.077	-1.61
212.547	-1.61
213.017	-1.61
213.486	-1.61
213.956	-1.61
214.426	-1.61
214.895	-1.61
215.365	-1.61
215.834	-1.61
216.304	-1.6
216.773	-1.6
217.243	-1.6
217.712	-1.6
218.181	-1.59
218.651	-1.59
219.12	-1.59
219.589	-1.59
220.058	-1.58
220.528	-1.58
220.997	-1.58
221.466	-1.57
221.935	-1.57
222.404	-1.56
222.873	-1.56
223.342	-1.55
223.812	-1.54
224.281	-1.54
224.749	-1.53
225.218	-1.52
225.687	-1.51
226.156	-1.5
226.625	-1.48
227.094	-1.47
227.563	-1.45
228.031	-1.43
228.5	-1.41
228.969	-1.39
229.438	-1.36
229.906	-1.33
230.375	-1.29
230.844	-1.26
231.312	-1.22
231.781	-1.17
232.249	-1.13
232.718	-1.08
233.186	-1.03
233.655	-0.98
234.123	-0.93
234.591	-0.88
235.06	-0.83
235.528	-0.78
235.996	-0.73
236.465	-0.69
236.933	-0.64
237.401	-0.6
237.869	-0.56
238.337	-0.52
238.805	-0.48
239.274	-0.44
239.742	-0.41
240.21	-0.38
240.678	-0.35
241.146	-0.32
241.614	-0.29
242.081	-0.27
242.549	-0.25
243.017	-0.22
243.485	-0.2
243.953	-0.18
244.421	-0.17
244.888	-0.15
245.356	-0.14
245.824	-0.12
246.291	-0.11
246.759	-0.09
247.227	-0.08
247.694	-0.07
248.162	-0.06
248.629	-0.05
249.097	-0.04
249.564	-0.03
250.032	-0.02
250.499	-0.02
250.967	-0.01
251.434	-0
251.901	0.01
252.369	0.01
252.836	0.02
253.303	0.02
253.77	0.03
254.237	0.03
254.705	0.04
255.172	0.04
255.639	0.05
256.106	0.05
256.573	0.06
257.04	0.06
257.507	0.06
257.974	0.06
258.441	0.07
258.908	0.07
259.375	0.07
259.841	0.07
260.308	0.08
260.775	0.08
261.242	0.08
261.709	0.08
262.175	0.08
262.642	0.08
263.109	0.08
263.575	0.08
264.042	0.09
264.508	0.09
264.975	0.09
265.441	0.09
265.908	0.09
266.374	0.09
266.841	0.09
267.307	0.09
267.773	0.09
268.24	0.09
268.706	0.09
269.172	0.09
269.639	0.09
270.105	0.09
270.571	0.09
271.037	0.09
271.503	0.09
271.969	0.09
272.435	0.09
272.902	0.08
273.368	0.08
273.834	0.08
274.3	0.08
274.765	0.08
275.231	0.08
275.697	0.08
276.163	0.08
276.629	0.08
277.095	0.08
277.56	0.07
278.026	0.07
278.492	0.07
278.958	0.07
279.423	0.07
279.889	0.07
280.354	0.07
280.82	0.07
281.286	0.07
281.751	0.07
282.217	0.07
282.682	0.07
283.147	0.07
283.613	0.07
284.078	0.07
284.544	0.07
285.009	0.07
285.474	0.07
285.939	0.07
286.405	0.07
286.87	0.07
287.335	0.07
287.8	0.07
288.265	0.07
288.73	0.07
289.195	0.07
289.66	0.07
290.125	0.07
290.59	0.06
291.055	0.06
291.52	0.06
291.985	0.06
292.45	0.06
292.915	0.06
293.38	0.06
293.844	0.06
294.309	0.06
294.774	0.06
295.239	0.06
295.703	0.06
296.168	0.06
296.632	0.06
297.097	0.06
297.562	0.06
298.026	0.06
298.491	0.06
298.955	0.06
299.419	0.07
299.884	0.07
300.348	0.07
300.813	0.07
301.277	0.07
301.741	0.07
302.205	0.07
302.67	0.07
303.134	0.07
303.598	0.07
304.062	0.07
304.526	0.07
304.99	0.07
305.454	0.07
305.919	0.07
306.383	0.07
306.847	0.07
307.31	0.07
307.774	0.07
308.238	0.07
308.702	0.07
309.166	0.07
309.63	0.07
310.094	0.07
310.557	0.07
311.021	0.07
311.485	0.06
311.948	0.06
312.412	0.06
312.876	0.06
313.339	0.06
313.803	0.06
314.266	0.06
314.73	0.06
315.193	0.06
315.657	0.06
316.12	0.06
316.584	0.06
317.047	0.06
317.51	0.06
317.973	0.06
318.437	0.06
318.9	0.06
319.363	0.06
319.826	0.06
320.29	0.06
320.753	0.06
321.216	0.06
321.679	0.06
322.142	0.06
322.605	0.06
323.068	0.06
323.531	0.06
323.994	0.06
324.457	0.06
324.92	0.06
325.382	0.06
325.845	0.06
326.308	0.06
326.771	0.06
327.233	0.06
327.696	0.06
328.159	0.06
328.622	0.05
329.084	0.05
329.547	0.05
330.009	0.05
330.472	0.05
330.934	0.05
331.397	0.05
331.859	0.05
332.322	0.05
332.784	0.05
333.246	0.05
333.709	0.05
334.171	0.05
334.633	0.05
335.096	0.05
335.558	0.05
336.02	0.05
336.482	0.05
336.944	0.05
337.406	0.05
337.868	0.05
338.331	0.05
338.793	0.05
339.255	0.05
339.717	0.05
340.178	0.04
340.64	0.04
341.102	0.04
341.564	0.04
342.026	0.04
342.488	0.04
342.949	0.04
343.411	0.04
343.873	0.04
344.335	0.04
344.796	0.04
345.258	0.04
345.719	0.04
346.181	0.04
346.643	0.04
347.104	0.04
347.566	0.04
348.027	0.04
348.488	0.04
348.95	0.03
349.411	0.03
349.873	0.03
350.334	0.03
350.795	0.03
351.256	0.03
351.718	0.03
352.179	0.03
352.64	0.03
353.101	0.03
353.562	0.02
354.023	0.02
354.484	0.02
354.945	0.02
355.406	0.02
355.867	0.02
356.328	0.02
356.789	0.02
357.25	0.02
357.711	0.02
358.172	0.02
358.633	0.02
359.093	0.02
359.554	0.02
360.015	0.02
360.476	0.02
360.936	0.02
361.397	0.03
361.858	0.03
362.318	0.03
362.779	0.03
363.239	0.03
363.7	0.03
364.16	0.02
364.621	0.02
365.081	0.02
365.541	0.02
366.002	0.02
366.462	0.02
366.922	0.02
367.383	0.02
367.843	0.02
368.303	0.02
368.763	0.02
369.223	0.02
369.684	0.02
370.144	0.02
370.604	0.02
371.064	0.02
371.524	0.02
371.984	0.02
372.444	0.02
372.904	0.02
373.363	0.02
373.823	0.02
374.283	0.02
374.743	0.02
375.203	0.02
375.663	0.02
376.122	0.02
376.582	0.02
377.042	0.02
377.501	0.02
377.961	0.02
378.42	0.02
378.88	0.02
379.34	0.02
379.799	0.02
380.259	0.02
380.718	0.02
381.177	0.02
381.637	0.02
382.096	0.02
382.555	0.02
383.015	0.02
383.474	0.02
383.933	0.02
384.393	0.02
384.852	0.02
385.311	0.02
385.77	0.02
386.229	0.02
386.688	0.02
387.147	0.02
387.606	0.02
388.065	0.02
388.524	0.02
388.983	0.02
389.442	0.02
389.901	0.02
390.36	0.02
390.819	0.02
391.277	0.02
391.736	0.02
392.195	0.02
392.654	0.02
393.112	0.02
393.571	0.02
394.03	0.02
394.488	0.02
394.947	0.02
395.405	0.02
395.864	0.02
396.322	0.02
396.781	0.02
397.239	0.02
397.698	0.02
398.156	0.02
398.614	0.02
399.073	0.02
399.531	0.02
399.989	0.02
400.447	0.02
400.905	0.02
401.364	0.02
401.822	0.02
402.28	0.02
402.738	0.02
403.196	0.02
403.654	0.02
404.112	0.02
404.57	0.02
405.028	0.02
405.486	0.02
405.944	0.02
406.402	0.02
406.859	0.02
407.317	0.02
407.775	0.02
408.233	0.02
408.691	0.01
409.148	0.01
409.606	0.01
410.064	0.01
410.521	0.01
410.979	0.01
411.436	0.01
411.894	0.01
412.351	0.01
412.809	0.01
413.266	0.01
413.724	0.01
414.181	0.01
414.638	0.01
415.096	0.01
415.553	0.01
416.01	0.01
416.467	0.01
416.925	0.01
417.382	0.01
417.839	0.01
418.296	0.01
418.753	0.01
419.21	0.01
419.667	0.01
420.124	0.01
420.581	0.01
421.038	0.02
421.495	0.02
421.952	0.02
422.409	0.02
422.866	0.02
423.322	0.02
423.779	0.02
424.236	0.02
424.693	0.02
425.149	0.01
425.606	0.01
426.063	0.01
426.519	0.01
426.976	0.01
427.433	0.01
427.889	0.01
428.346	0.01
428.802	0.01
429.258	0.02
429.715	0.02
430.171	0.02
430.628	0.02
431.084	0.02
431.54	0.01
431.997	0.01
432.453	0.01
432.909	0.01
433.365	0.01
433.821	0.01
434.277	0.01
434.734	0.01
435.19	0.01
435.646	0.01
436.102	0.01
436.558	0.01
437.014	0.01
437.47	0.01
437.925	0.01
438.381	0.01
438.837	0.01
439.293	0.01
439.749	0.01
440.205	0.01
440.66	0.01
441.116	0.01
441.572	0.01
442.027	0.01
442.483	0.01
442.939	0.01
443.394	0.01
443.85	0.01
444.305	0.01
444.761	0.01
445.216	0.01
445.672	0.01
446.127	0.01
446.582	0.01
447.038	0.01
447.493	0.01
447.948	0.01
448.403	0.01
448.859	0.01
449.314	0.01
449.769	0.01
450.224	0
450.679	0
451.134	0
451.589	0
452.044	0
452.499	0
452.954	-0
453.409	-0
453.864	-0
454.319	-0
454.774	-0.01
455.229	-0.01
455.684	-0.01
456.138	-0.01
456.593	-0.01
457.048	-0.01
457.503	-0.01
457.957	-0.01
458.412	-0.01
458.866	-0.01
459.321	-0.01
459.776	-0.01
460.23	-0.01
460.685	-0.01
461.139	-0.01
461.593	-0.01
462.048	-0.01
462.502	-0.01
462.957	-0.01
463.411	-0.01
463.865	-0.01
464.319	-0.01
464.774	-0.01
465.228	-0.01
465.682	-0.01
466.136	-0.01
466.59	-0.01
467.044	-0.01
467.499	-0.02
467.953	-0.02
468.407	-0.02
468.861	-0.03
469.315	-0.03
469.768	-0.03
470.222	-0.03
470.676	-0.03
471.13	-0.03
471.584	-0.04
472.038	-0.04
472.491	-0.04
472.945	-0.03
473.399	-0.03
473.852	-0.03
474.306	-0.03
474.76	-0.03
475.213	-0.03
475.667	-0.03
476.12	-0.03
476.574	-0.03
477.027	-0.03
477.481	-0.03
477.934	-0.03
478.388	-0.03
478.841	-0.03
479.294	-0.03
479.748	-0.03
480.201	-0.03
480.654	-0.03
481.107	-0.03
481.561	-0.03
482.014	-0.03
482.467	-0.03
482.92	-0.02
483.373	-0.02
483.826	-0.02
484.279	-0.01
484.732	-0.01
485.185	-0.01
485.638	-0.01
486.091	-0.01
486.544	-0.01
486.997	-0.01
487.449	-0.01
487.902	-0.01
488.355	-0.02
488.808	-0.02
489.26	-0.03
489.713	-0.03
490.166	-0.03
490.618	-0.04
491.071	-0.04
491.523	-0.04
491.976	-0.04
492.429	-0.04
492.881	-0.04
493.333	-0.04
493.786	-0.04
494.238	-0.04
494.691	-0.04
495.143	-0.04
495.595	-0.04
496.048	-0.04
496.5	-0.04
496.952	-0.04
497.404	-0.04
497.856	-0.04
498.309	-0.04
498.761	-0.04
499.213	-0.04
499.665	-0.04
500.117	-0.04
500.569	-0.04
501.021	-0.04
501.473	-0.04
501.925	-0.04
502.377	-0.04
502.828	-0.04
503.28	-0.04
503.732	-0.04
504.184	-0.04
504.636	-0.04
505.087	-0.04
505.539	-0.04
505.991	-0.05
506.442	-0.05
506.894	-0.05
507.345	-0.05
507.797	-0.05
508.249	-0.05
508.7	-0.05
509.151	-0.05
509.603	-0.06
510.054	-0.06
510.506	-0.06
510.957	-0.06
511.408	-0.06
511.86	-0.06
512.311	-0.06
512.762	-0.06
513.213	-0.07
513.665	-0.07
514.116	-0.07
514.567	-0.07
515.018	-0.07
515.469	-0.07
515.92	-0.08
516.371	-0.08
516.822	-0.08
517.273	-0.08
517.724	-0.08
518.175	-0.08
518.626	-0.08
519.076	-0.08
519.527	-0.08
519.978	-0.08
520.429	-0.09
520.88	-0.09
521.33	-0.09
521.781	-0.1
522.232	-0.1
522.682	-0.11
523.133	-0.11
523.583	-0.11
524.034	-0.11
524.484	-0.12
524.935	-0.11
525.385	-0.11
525.836	-0.11
526.286	-0.11
526.736	-0.1
527.187	-0.09
527.637	-0.09
528.087	-0.08
528.538	-0.08
528.988	-0.07
529.438	-0.07
529.888	-0.07
530.338	-0.06
530.788	-0.06
531.238	-0.06
531.688	-0.06
532.139	-0.06
532.589	-0.05
533.038	-0.05
533.488	-0.05
533.938	-0.05
534.388	-0.05
534.838	-0.05
535.288	-0.05
535.738	-0.04
536.187	-0.04
536.637	-0.04
537.087	-0.04
537.537	-0.04
537.986	-0.04
538.436	-0.04
538.885	-0.04
539.335	-0.04
539.785	-0.03
540.234	-0.03
540.684	-0.03
541.133	-0.03
541.582	-0.03
542.032	-0.03
542.481	-0.03
542.931	-0.03
543.38	-0.03
543.829	-0.03
544.278	-0.03
544.728	-0.03
545.177	-0.03
545.626	-0.02
546.075	-0.02
546.524	-0.02
546.973	-0.02
547.422	-0.02
547.871	-0.02
548.32	-0.02
548.769	-0.02
549.218	-0.02
549.667	-0.02
550.116	-0.02
550.565	-0.02
551.014	-0.02
551.463	-0.02
551.911	-0.02
552.36	-0.02
552.809	-0.02
553.258	-0.02
553.706	-0.02
554.155	-0.01
554.603	-0.01
555.052	-0.02
555.501	-0.02
555.949	-0.02
556.398	-0.02
556.846	-0.02
557.294	-0.02
557.743	-0.02
558.191	-0.02
558.64	-0.02
559.088	-0.02
559.536	-0.02
559.985	-0.02
560.433	-0.02
560.881	-0.01
561.329	-0.01
561.777	-0.01
562.225	-0
562.674	-0
563.122	-0
563.57	-0
564.018	-0.01
564.466	-0.01
564.914	-0.01
565.362	-0.01
565.809	-0.01
566.257	-0
566.705	-0
567.153	0
567.601	0.01
568.048	0.01
568.496	0.02
568.944	0.03
569.392	0.03
569.839	0.04
570.287	0.04
570.734	0.05
571.182	0.05
571.63	0.06
572.077	0.06
572.525	0.06
572.972	0.07
573.419	0.07
573.867	0.07
574.314	0.07
574.761	0.07
575.209	0.07
575.656	0.08
576.103	0.08
576.551	0.08
576.998	0.08
577.445	0.08
577.892	0.08
578.339	0.08
578.786	0.09
579.233	0.09
579.68	0.09
580.127	0.1
580.574	0.09
581.021	0.09
581.468	0.09
581.915	0.09
582.362	0.09
582.809	0.09
583.255	0.09
583.702	0.09
584.149	0.09
584.596	0.09
585.042	0.09
585.489	0.09
585.936	0.09
586.382	0.09
586.829	0.09
587.275	0.09
587.722	0.08
588.168	0.08
588.615	0.08
589.061	0.07
589.508	0.07
589.954	0.07
590.4	0.07
590.847	0.07
591.293	0.07
591.739	0.07
592.185	0.07
592.632	0.07
593.078	0.08
593.524	0.08
593.97	0.08
594.416	0.08
594.862	0.07
595.308	0.07
595.754	0.07
596.2	0.07
596.646	0.07
597.092	0.07
597.538	0.07
597.984	0.08
598.43	0.08
598.876	0.08
599.321	0.08
599.767	0.08
600.213	0.08
600.659	0.08
601.104	0.08
601.55	0.08
601.995	0.08
602.441	0.07
602.887	0.07
603.332	0.07
603.778	0.07
604.223	0.07
604.668	0.07
605.114	0.08
605.559	0.08
606.005	0.08
606.45	0.08
606.895	0.08
607.341	0.08
607.786	0.08
608.231	0.08
608.676	0.07
609.121	0.07
609.566	0.07
610.012	0.07
610.457	0.07
610.902	0.06
611.347	0.06
611.792	0.07
612.237	0.07
612.682	0.07
613.127	0.07
613.571	0.07
614.016	0.07
614.461	0.07
614.906	0.07
615.351	0.06
615.795	0.06
616.24	0.06
616.685	0.06
617.129	0.06
617.574	0.05
618.019	0.05
618.463	0.04
618.908	0.04
619.352	0.04
619.797	0.04
620.241	0.04
620.686	0.04
621.13	0.04
621.574	0.04
622.019	0.04
622.463	0.04
622.907	0.04
623.352	0.04
623.796	0.04
624.24	0.04
624.684	0.04
625.128	0.04
625.572	0.04
626.016	0.04
626.461	0.04
626.905	0.03
627.349	0.03
627.793	0.03
628.236	0.03
628.68	0.03
629.124	0.03
629.568	0.03
630.012	0.02
630.456	0.02
630.9	0.02
631.343	0.02
631.787	0.02
632.231	0.01
632.674	0.01
633.118	0.01
633.562	0.01
634.005	0.01
634.449	0.01
634.892	0.01
635.336	0.01
635.779	0.01
636.223	0.01
636.666	0.01
637.109	0.01
637.553	0.01
637.996	0.01
638.439	0.01
638.883	0.01
639.326	0.01
639.769	0.01
640.212	0.01
640.655	0.01
641.099	0.01
641.542	0.01
641.985	0.01
642.428	0.01
642.871	0.01
643.314	0.01
643.757	0.01
644.2	0.01
644.643	0.01
645.085	0.01
645.528	0.01
645.971	0.01
646.414	0.02
646.857	0.02
647.299	0.02
647.742	0.02
648.185	0.02
648.627	0.02
649.07	0.02
649.513	0.02
649.955	0.03
650.398	0.03
650.84	0.03
651.283	0.03
651.725	0.02
652.168	0.02
652.61	0.02
653.052	0.03
653.495	0.03
653.937	0.04
654.379	0.04
654.821	0.05
655.264	0.05
655.706	0.05
656.148	0.05
656.59	0.05
657.032	0.05
657.474	0.05
657.916	0.05
658.358	0.04
658.8	0.04
659.242	0.04
659.684	0.03
660.126	0.03
660.568	0.03
661.01	0.03
661.452	0.03
661.894	0.03
662.335	0.03
662.777	0.03
663.219	0.03
663.661	0.03
664.102	0.03
664.544	0.03
664.985	0.03
665.427	0.03
665.869	0.03
666.31	0.03
666.752	0.03
667.193	0.03
667.634	0.03
668.076	0.03
668.517	0.04
668.959	0.04
669.4	0.04
669.841	0.04
670.282	0.04
670.724	0.04
671.165	0.04
671.606	0.04
672.047	0.04
672.488	0.04
672.929	0.04
673.37	0.04
673.811	0.04
674.252	0.04
674.693	0.04
675.134	0.04
675.575	0.04
676.016	0.04
676.457	0.04
676.898	0.04
677.339	0.04
677.78	0.04
678.22	0.05
678.661	0.05
679.102	0.05
679.542	0.05
679.983	0.05
680.424	0.05
680.864	0.05
681.305	0.05
681.745	0.05
682.186	0.05
682.626	0.05
683.067	0.06
683.507	0.06
683.948	0.06
684.388	0.06
684.828	0.06
685.269	0.06
685.709	0.06
686.149	0.06
686.589	0.06
687.029	0.06
687.47	0.06
687.91	0.06
688.35	0.06
688.79	0.06
689.23	0.06
689.67	0.07
690.11	0.07
690.55	0.07
690.99	0.07
691.43	0.07
691.87	0.07
692.31	0.07
692.749	0.07
693.189	0.07
693.629	0.08
694.069	0.07
694.508	0.07
694.948	0.08
695.388	0.08
695.827	0.08
696.267	0.08
696.706	0.08
697.146	0.08
697.586	0.08
698.025	0.08
698.464	0.08
698.904	0.08
699.343	0.08
699.783	0.08
700.222	0.08
700.661	0.08
701.101	0.08
701.54	0.08
701.979	0.09
702.418	0.09
702.857	0.09
703.297	0.09
703.736	0.09
704.175	0.09
704.614	0.09
705.053	0.09
705.492	0.09
705.931	0.09
706.37	0.09
706.809	0.09
707.248	0.09
707.687	0.09
708.125	0.09
708.564	0.09
709.003	0.09
709.442	0.09
709.88	0.09
710.319	0.09
710.758	0.09
711.196	0.09
711.635	0.09
712.074	0.09
712.512	0.09
712.951	0.09
713.389	0.09
713.828	0.09
714.266	0.09
714.705	0.09
715.143	0.09
715.581	0.09
716.02	0.09
716.458	0.09
716.896	0.09
717.334	0.08
717.773	0.08
718.211	0.08
718.649	0.08
719.087	0.08
719.525	0.08
719.963	0.08
720.401	0.08
720.839	0.08
721.277	0.08
721.715	0.08
722.153	0.08
722.591	0.08
723.029	0.08
723.467	0.08
723.905	0.08
724.342	0.08
724.78	0.08
725.218	0.08
725.656	0.08
726.093	0.08
726.531	0.08
726.969	0.08
727.406	0.08
727.844	0.08
728.281	0.08
728.719	0.08
729.156	0.08
729.594	0.08
730.031	0.08
730.469	0.08
730.906	0.08
731.343	0.08
731.781	0.08
732.218	0.08
732.655	0.08
733.092	0.07
733.53	0.07
733.967	0.07
734.404	0.07
734.841	0.07
735.278	0.07
735.715	0.06
736.152	0.06
736.589	0.06
737.026	0.06
737.463	0.06
737.9	0.06
738.337	0.05
738.774	0.05
739.211	0.05
739.647	0.05
740.084	0.04
740.521	0.04
740.958	0.04
741.394	0.03
741.831	0.02
742.268	0.02
742.704	0.01
743.141	0.01
743.577	0.01
744.014	0
744.45	0
744.887	0
745.323	0
745.76	0
746.196	0
746.632	0
747.069	0.01
747.505	0.01
747.941	0.01
748.378	0.01
748.814	0.01
749.25	0.02
749.686	0.02
750.122	0.02
750.558	0.02
750.994	0.02
751.43	0.02
751.866	0.03
752.302	0.03
752.738	0.03
753.174	0.03
753.61	0.03
754.046	0.03
754.482	0.03
754.918	0.03
755.354	0.03
755.789	0.04
756.225	0.04
756.661	0.04
757.096	0.04
757.532	0.04
757.968	0.04
758.403	0.04
758.839	0.04
759.274	0.04
759.71	0.03
760.145	0.03
760.581	0.02
761.016	0.02
761.452	0.01
761.887	0.01
762.322	0.01
762.758	0.01
763.193	0.01
763.628	0
764.063	-0
764.499	-0
764.934	-0.01
765.369	-0.01
765.804	-0.01
766.239	-0.01
766.674	-0.01
767.109	-0.01
767.544	-0.02
767.979	-0.02
768.414	-0.03
768.849	-0.02
769.284	-0.02
769.719	-0.02
770.154	-0.02
770.588	-0.03
771.023	-0.03
771.458	-0.04
771.893	-0.04
772.327	-0.04
772.762	-0.04
773.197	-0.04
773.631	-0.05
774.066	-0.05
774.5	-0.05
774.935	-0.05
775.369	-0.05
775.804	-0.05
776.238	-0.05
776.673	-0.05
777.107	-0.05
777.541	-0.05
777.976	-0.05
778.41	-0.05
778.844	-0.04
779.279	-0.04
779.713	-0.03
780.147	-0.03
780.581	-0.03
781.015	-0.03
781.449	-0.02
781.883	-0.02
782.317	-0.02
782.751	-0.02
783.185	-0.02
783.619	-0.02
784.053	-0.02
784.487	-0.03
784.921	-0.03
785.355	-0.03
785.789	-0.03
786.223	-0.03
786.656	-0.02
787.09	-0.02
787.524	-0.02
787.957	-0.02
788.391	-0.02
788.825	-0.02
789.258	-0.02
789.692	-0.02
790.125	-0.02
790.559	-0.02
790.992	-0.02
791.426	-0.02
791.859	-0.02
792.293	-0.01
792.726	-0
793.159	0
793.593	0
794.026	0
794.459	-0
794.892	-0.01
795.326	-0.01
795.759	-0.01
796.192	-0.01
796.625	-0.02
797.058	-0.03
797.491	-0.03
797.924	-0.04
798.357	-0.04
798.79	-0.04
799.223	-0.04
799.656	-0.04
800.089	-0.04
800.522	-0.04
800.955	-0.04
801.387	-0.04
801.82	-0.04
802.253	-0.04
802.686	-0.04
803.118	-0.04
803.551	-0.04
803.984	-0.04
804.416	-0.03
804.849	-0.03
805.281	-0.03
805.714	-0.03
806.146	-0.03
806.579	-0.03
807.011	-0.03
807.444	-0.03
807.876	-0.03
808.308	-0.03
808.741	-0.03
809.173	-0.04
809.605	-0.04
810.037	-0.04
810.47	-0.04
810.902	-0.05
811.334	-0.05
811.766	-0.04
812.198	-0.04
812.63	-0.04
813.062	-0.04
813.494	-0.04
813.926	-0.04
814.358	-0.04
814.79	-0.04
815.222	-0.03
815.654	-0.03
816.086	-0.03
816.518	-0.03
816.949	-0.04
817.381	-0.04
817.813	-0.04
818.245	-0.03
818.676	-0.03
819.108	-0.03
819.54	-0.03
819.971	-0.03
820.403	-0.03
820.834	-0.03
821.266	-0.03
821.697	-0.03
822.129	-0.03
822.56	-0.03
822.991	-0.04
823.423	-0.04
823.854	-0.04
824.286	-0.04
824.717	-0.04
825.148	-0.03
825.579	-0.03
826.01	-0.03
826.442	-0.02
826.873	-0.02
827.304	-0.02
827.735	-0.01
828.166	-0.01
828.597	-0.01
829.028	-0
829.459	-0
829.89	0
830.321	0
830.752	0.01
831.183	0.02
831.613	0.02
832.044	0.03
832.475	0.03
832.906	0.04
833.336	0.05
833.767	0.05
834.198	0.06
834.628	0.06
835.059	0.06
835.49	0.07
835.92	0.07
836.351	0.07
836.781	0.07
837.212	0.08
837.642	0.08
838.072	0.08
838.503	0.08
838.933	0.08
839.364	0.09
839.794	0.09
840.224	0.09
840.654	0.09
841.085	0.1
841.515	0.1
841.945	0.11
842.375	0.11
842.805	0.11
843.235	0.12
843.665	0.12
844.095	0.12
844.525	0.13
844.955	0.13
845.385	0.14
845.815	0.14
846.245	0.14
846.675	0.15
847.105	0.15
847.534	0.15
847.964	0.16
848.394	0.16
848.824	0.16
849.253	0.17
849.683	0.17
850.112	0.17
850.542	0.17
850.972	0.18
851.401	0.18
851.831	0.18
852.26	0.18
852.69	0.18
853.119	0.19
853.548	0.19
853.978	0.19
854.407	0.19
854.836	0.19
855.266	0.2
855.695	0.2
856.124	0.2
856.553	0.2
856.983	0.2
857.412	0.2
857.841	0.21
858.27	0.21
858.699	0.21
859.128	0.21
859.557	0.21
859.986	0.21
860.415	0.22
860.844	0.22
861.273	0.22
861.702	0.22
862.13	0.22
862.559	0.23
862.988	0.23
863.417	0.23
863.845	0.23
864.274	0.23
864.703	0.23
865.131	0.23
865.56	0.24
865.989	0.24
866.417	0.24
866.846	0.24
867.274	0.24
867.703	0.24
868.131	0.24
868.559	0.25
868.988	0.25
869.416	0.25
869.844	0.25
870.273	0.25
870.701	0.25
871.129	0.25
871.557	0.25
871.986	0.26
872.414	0.26
872.842	0.26
873.27	0.26
873.698	0.26
874.126	0.26
874.554	0.26
874.982	0.26
875.41	0.26
875.838	0.26
876.266	0.26
876.694	0.26
877.122	0.26
877.549	0.27
877.977	0.27
878.405	0.27
878.833	0.27
879.26	0.27
879.688	0.26
880.116	0.26
880.543	0.26
880.971	0.26
881.399	0.26
881.826	0.26
882.254	0.26
882.681	0.26
883.109	0.26
883.536	0.26
883.963	0.26
884.391	0.26
884.818	0.26
885.245	0.26
885.673	0.26
886.1	0.27
886.527	0.27
886.954	0.27
887.381	0.27
887.809	0.27
888.236	0.27
888.663	0.27
889.09	0.27
889.517	0.27
889.944	0.27
890.371	0.27
890.798	0.27
891.225	0.27
891.652	0.27
892.078	0.27
892.505	0.27
892.932	0.28
893.359	0.28
893.786	0.28
894.212	0.28
894.639	0.28
895.066	0.28
895.492	0.28
895.919	0.28
896.346	0.28
896.772	0.28
897.199	0.28
897.625	0.29
898.052	0.29
898.478	0.29
898.904	0.29
899.331	0.29
899.757	0.29
900.183	0.29
900.61	0.29
901.036	0.29
901.462	0.29
901.888	0.29
902.315	0.29
902.741	0.29
903.167	0.29
903.593	0.29
904.019	0.29
904.445	0.29
904.871	0.29
905.297	0.29
905.723	0.29
906.149	0.28
906.575	0.28
907.001	0.29
907.427	0.29
907.852	0.29
908.278	0.29
908.704	0.29
909.13	0.29
909.555	0.29
909.981	0.29
910.407	0.29
910.832	0.29
911.258	0.29
911.684	0.29
912.109	0.29
912.535	0.29
912.96	0.29
913.386	0.29
913.811	0.29
914.236	0.29
914.662	0.29
915.087	0.29
915.512	0.29
915.938	0.29
916.363	0.29
916.788	0.29
917.213	0.29
917.639	0.3
918.064	0.3
918.489	0.3
918.914	0.3
919.339	0.3
919.764	0.3
920.189	0.3
920.614	0.3
921.039	0.31
921.464	0.31
921.889	0.31
922.314	0.31
922.738	0.31
923.163	0.31
923.588	0.31
924.013	0.31
924.437	0.31
924.862	0.31
925.287	0.31
925.711	0.31
926.136	0.31
926.561	0.31
926.985	0.31
927.41	0.31
927.834	0.31
928.259	0.31
928.683	0.31
929.108	0.32
929.532	0.32
929.956	0.32
930.381	0.32
930.805	0.32
931.229	0.33
931.653	0.33
932.078	0.33
932.502	0.33
932.926	0.33
933.35	0.33
933.774	0.33
934.198	0.34
934.622	0.34
935.046	0.34
935.47	0.34
935.894	0.34
936.318	0.35
936.742	0.35
937.166	0.36
937.59	0.36
938.014	0.37
938.437	0.37
938.861	0.38
939.285	0.39
939.709	0.39
940.132	0.4
940.556	0.41
940.98	0.41
941.403	0.42
941.827	0.42
942.25	0.43
942.674	0.43
943.097	0.43
943.521	0.43
943.944	0.44
944.368	0.44
944.791	0.44
945.214	0.44
945.638	0.44
946.061	0.44
946.484	0.44
946.907	0.44
947.331	0.43
947.754	0.43
948.177	0.43
948.6	0.42
949.023	0.42
949.446	0.41
949.869	0.41
950.292	0.4
950.715	0.39
951.138	0.39
951.561	0.39
951.984	0.38
952.407	0.38
952.83	0.38
953.252	0.37
953.675	0.37
954.098	0.37
954.521	0.37
954.943	0.37
955.366	0.37
955.789	0.37
956.211	0.37
956.634	0.36
957.056	0.36
957.479	0.36
957.902	0.36
958.324	0.36
958.746	0.36
959.169	0.36
959.591	0.36
960.014	0.35
960.436	0.35
960.858	0.35
961.281	0.35
961.703	0.35
962.125	0.35
962.547	0.35
962.969	0.35
963.391	0.35
963.814	0.35
964.236	0.35
964.658	0.35
965.08	0.34
965.502	0.34
965.924	0.34
966.346	0.34
966.768	0.34
967.189	0.34
967.611	0.34
968.033	0.34
968.455	0.34
968.877	0.34
969.298	0.34
969.72	0.34
970.142	0.34
970.563	0.34
970.985	0.34
971.407	0.35
971.828	0.35
972.25	0.35
972.671	0.35
973.093	0.35
973.514	0.35
973.936	0.35
974.357	0.35
974.778	0.35
975.2	0.35
975.621	0.35
976.042	0.35
976.464	0.35
976.885	0.35
977.306	0.34
977.727	0.34
978.148	0.34
978.57	0.34
978.991	0.34
979.412	0.34
979.833	0.34
980.254	0.34
980.675	0.34
981.096	0.34
981.517	0.34
981.937	0.34
982.358	0.34
982.779	0.34
983.2	0.34
983.621	0.34
984.042	0.34
984.462	0.34
984.883	0.34
985.304	0.34
985.724	0.34
986.145	0.34
986.565	0.34
986.986	0.34
987.407	0.34
987.827	0.34
988.248	0.35
988.668	0.35
989.088	0.35
989.509	0.35
989.929	0.35
990.35	0.35
990.77	0.35
991.19	0.35
991.61	0.35
992.031	0.35
992.451	0.35
992.871	0.35
993.291	0.34
993.711	0.34
994.131	0.34
994.551	0.34
994.971	0.34
995.391	0.34
995.811	0.34
996.231	0.34
996.651	0.34
997.071	0.34
997.491	0.34
997.911	0.34
998.331	0.34
998.75	0.34
999.17	0.34
999.59	0.34
1000.009	0.34
1000.429	0.34
1000.849	0.34
1001.268	0.34
1001.688	0.34
1002.107	0.34
1002.527	0.34
1002.946	0.34
1003.366	0.34
1003.785	0.34
1004.205	0.34
1004.624	0.33
1005.044	0.33
1005.463	0.33
1005.882	0.33
1006.301	0.33
1006.721	0.33
1007.14	0.33
1007.559	0.33
1007.978	0.33
1008.397	0.34
1008.816	0.34
1009.235	0.34
1009.655	0.34
1010.074	0.34
1010.492	0.34
1010.911	0.34
1011.33	0.34
1011.749	0.34
1012.168	0.34
1012.587	0.34
1013.006	0.34
1013.425	0.34
1013.843	0.34
1014.262	0.34
1014.681	0.34
1015.099	0.34
1015.518	0.34
1015.937	0.34
1016.355	0.34
1016.774	0.34
1017.192	0.35
1017.611	0.35
1018.029	0.35
1018.448	0.35
1018.866	0.35
1019.285	0.35
1019.703	0.35
1020.121	0.35
1020.54	0.35
1020.958	0.35
1021.376	0.35
1021.794	0.35
1022.213	0.35
1022.631	0.35
1023.049	0.35
1023.467	0.35
1023.885	0.34
1024.303	0.34
1024.721	0.34
1025.139	0.34
1025.557	0.35
1025.975	0.35
1026.393	0.35
1026.811	0.35
1027.229	0.35
1027.647	0.35
1028.065	0.35
1028.482	0.35
1028.9	0.36
1029.318	0.36
1029.735	0.36
1030.153	0.36
1030.571	0.36
1030.988	0.36
1031.406	0.36
1031.823	0.36
1032.241	0.36
1032.659	0.37
1033.076	0.37
1033.493	0.37
1033.911	0.37
1034.328	0.37
1034.746	0.37
1035.163	0.37
1035.58	0.38
1035.997	0.38
1036.415	0.38
1036.832	0.38
1037.249	0.39
1037.666	0.39
1038.083	0.39
1038.501	0.4
1038.918	0.4
1039.335	0.4
1039.752	0.41
1040.169	0.41
1040.586	0.41
1041.003	0.41
1041.419	0.41
1041.836	0.42
1042.253	0.42
1042.67	0.42
1043.087	0.42
1043.504	0.43
1043.92	0.43
1044.337	0.43
1044.754	0.44
1045.17	0.44
1045.587	0.44
1046.004	0.45
1046.42	0.45
1046.837	0.46
1047.253	0.46
1047.67	0.46
1048.086	0.47
1048.503	0.47
1048.919	0.47
1049.335	0.47
1049.752	0.48
1050.168	0.48
1050.584	0.48
1051.001	0.49
1051.417	0.49
1051.833	0.5
1052.249	0.5
1052.665	0.51
1053.081	0.52
1053.497	0.52
1053.914	0.53
1054.33	0.53
1054.746	0.54
1055.162	0.54
1055.578	0.54
1055.993	0.55
1056.409	0.55
1056.825	0.56
1057.241	0.56
1057.657	0.57
1058.073	0.58
1058.488	0.58
1058.904	0.59
1059.32	0.6
1059.736	0.61
1060.151	0.62
1060.567	0.63
1060.982	0.64
1061.398	0.64
1061.813	0.65
1062.229	0.66
1062.644	0.66
1063.06	0.67
1063.475	0.67
1063.891	0.68
1064.306	0.69
1064.721	0.7
1065.137	0.71
1065.552	0.72
1065.967	0.73
1066.382	0.75
1066.798	0.76
1067.213	0.77
1067.628	0.79
1068.043	0.8
1068.458	0.81
1068.873	0.82
1069.288	0.84
1069.703	0.85
1070.118	0.87
1070.533	0.89
1070.948	0.91
1071.363	0.93
1071.778	0.96
1072.193	1
1072.607	1.04
1073.022	1.08
1073.437	1.13
1073.852	1.17
1074.266	1.23
1074.681	1.3
1075.096	1.38
1075.51	1.49
1075.925	1.64
1076.339	1.92
1076.754	2.63
1077.168	-0
1077.583	-0
1077.997	-0
1078.412	-0
1078.826	-0
1079.24	-0
1079.655	-0
1080.069	-0
1080.483	-0
1080.897	-0
1081.312	-0
1081.726	-0
1082.14	-0
1082.554	-0
1082.968	-0
1083.382	-0
1083.796	-0
1084.21	-0
1084.624	-0
1085.038	-0
1085.452	-0
1085.866	-0
1086.28	-0
1086.694	-0
1087.108	-0
1087.521	-0
1087.935	-0
1088.349	-0
1088.763	-0
1089.176	-0
1089.59	-0
1090.004	-0
1090.417	-0
1090.831	-0
1091.244	-0
1091.658	-0
1092.071	-0
1092.485	-0
1092.898	-0
1093.312	-0
1093.725	-0
1094.138	-0
1094.552	-0
1094.965	-0
1095.378	-0
1095.791	-0
1096.205	-0
1096.618	-0
1097.031	-0
1097.444	-0
1097.857	-0
1098.27	-0
1098.683	-0
1099.096	-0
1099.509	-0
1099.922	-0
1100.335	-0
1100.748	-0
1101.161	-0
1101.574	-0
1101.986	-0
1102.399	-0
1102.812	-0
1103.225	-0
1103.637	-0
1104.05	-0
1104.463	-0
1104.875	-0
1105.288	-0
1105.7	-0
1106.113	-0
1106.525	-0
1106.938	-0
1107.35	-0
1107.763	-0
1108.175	-0
1108.588	-0
1109	-0
1109.412	-0
1109.824	-0
1110.237	-0
1110.649	-0
1111.061	-0
