Data from redip-kinet-2-5a_Absorbance__23__00023.txt Node

Date: Fri Apr 12 13:46:16 CEST 2024
User: Laser008
Spectrometer: MAYP115816
Trigger mode: 0
Integration Time (sec): 2.000000E-1
Scans to average: 10
Electric dark correction enabled: true
Nonlinearity correction enabled: true
Boxcar width: 5
XAxis mode: Wavelengths
Number of Pixels in Spectrum: 2068
>>>>>Begin Spectral Data<<<<<
198.914	-2.47
199.384	-2.32
199.855	-2.18
200.325	-2.06
200.796	-1.99
201.266	-1.94
201.737	-1.86
202.207	-1.8
202.677	-1.75
203.147	-1.7
203.618	-1.67
204.088	-1.64
204.558	-1.63
205.028	-1.61
205.498	-1.61
205.968	-1.6
206.439	-1.6
206.909	-1.6
207.379	-1.6
207.849	-1.59
208.319	-1.59
208.789	-1.58
209.258	-1.58
209.728	-1.58
210.198	-1.58
210.668	-1.58
211.138	-1.58
211.608	-1.57
212.077	-1.57
212.547	-1.57
213.017	-1.57
213.486	-1.57
213.956	-1.57
214.426	-1.57
214.895	-1.57
215.365	-1.56
215.834	-1.56
216.304	-1.56
216.773	-1.56
217.243	-1.56
217.712	-1.55
218.181	-1.55
218.651	-1.55
219.12	-1.55
219.589	-1.55
220.058	-1.54
220.528	-1.54
220.997	-1.54
221.466	-1.53
221.935	-1.53
222.404	-1.52
222.873	-1.52
223.342	-1.51
223.812	-1.5
224.281	-1.5
224.749	-1.49
225.218	-1.48
225.687	-1.47
226.156	-1.46
226.625	-1.45
227.094	-1.43
227.563	-1.41
228.031	-1.39
228.5	-1.37
228.969	-1.35
229.438	-1.32
229.906	-1.29
230.375	-1.25
230.844	-1.22
231.312	-1.18
231.781	-1.13
232.249	-1.09
232.718	-1.04
233.186	-0.99
233.655	-0.94
234.123	-0.89
234.591	-0.84
235.06	-0.79
235.528	-0.75
235.996	-0.7
236.465	-0.65
236.933	-0.61
237.401	-0.56
237.869	-0.52
238.337	-0.48
238.805	-0.45
239.274	-0.41
239.742	-0.38
240.21	-0.35
240.678	-0.32
241.146	-0.29
241.614	-0.26
242.081	-0.24
242.549	-0.22
243.017	-0.2
243.485	-0.18
243.953	-0.16
244.421	-0.14
244.888	-0.12
245.356	-0.11
245.824	-0.1
246.291	-0.08
246.759	-0.07
247.227	-0.06
247.694	-0.05
248.162	-0.04
248.629	-0.03
249.097	-0.02
249.564	-0.01
250.032	-0
250.499	0.01
250.967	0.01
251.434	0.02
251.901	0.03
252.369	0.03
252.836	0.04
253.303	0.05
253.77	0.05
254.237	0.06
254.705	0.06
255.172	0.07
255.639	0.07
256.106	0.07
256.573	0.08
257.04	0.08
257.507	0.08
257.974	0.09
258.441	0.09
258.908	0.09
259.375	0.09
259.841	0.1
260.308	0.1
260.775	0.1
261.242	0.1
261.709	0.1
262.175	0.1
262.642	0.1
263.109	0.1
263.575	0.11
264.042	0.11
264.508	0.11
264.975	0.11
265.441	0.11
265.908	0.11
266.374	0.11
266.841	0.11
267.307	0.11
267.773	0.11
268.24	0.11
268.706	0.11
269.172	0.11
269.639	0.11
270.105	0.11
270.571	0.11
271.037	0.11
271.503	0.1
271.969	0.1
272.435	0.1
272.902	0.1
273.368	0.1
273.834	0.1
274.3	0.1
274.765	0.1
275.231	0.1
275.697	0.1
276.163	0.09
276.629	0.09
277.095	0.09
277.56	0.09
278.026	0.09
278.492	0.09
278.958	0.08
279.423	0.08
279.889	0.08
280.354	0.08
280.82	0.08
281.286	0.08
281.751	0.08
282.217	0.08
282.682	0.08
283.147	0.08
283.613	0.08
284.078	0.08
284.544	0.08
285.009	0.08
285.474	0.08
285.939	0.08
286.405	0.08
286.87	0.08
287.335	0.08
287.8	0.08
288.265	0.08
288.73	0.07
289.195	0.07
289.66	0.07
290.125	0.07
290.59	0.07
291.055	0.07
291.52	0.07
291.985	0.07
292.45	0.07
292.915	0.07
293.38	0.07
293.844	0.07
294.309	0.07
294.774	0.07
295.239	0.07
295.703	0.07
296.168	0.07
296.632	0.07
297.097	0.07
297.562	0.07
298.026	0.07
298.491	0.07
298.955	0.07
299.419	0.07
299.884	0.07
300.348	0.07
300.813	0.07
301.277	0.07
301.741	0.07
302.205	0.07
302.67	0.07
303.134	0.07
303.598	0.07
304.062	0.07
304.526	0.07
304.99	0.07
305.454	0.07
305.919	0.07
306.383	0.07
306.847	0.07
307.31	0.07
307.774	0.07
308.238	0.07
308.702	0.07
309.166	0.07
309.63	0.07
310.094	0.07
310.557	0.07
311.021	0.07
311.485	0.07
311.948	0.07
312.412	0.07
312.876	0.07
313.339	0.07
313.803	0.07
314.266	0.07
314.73	0.07
315.193	0.07
315.657	0.07
316.12	0.07
316.584	0.07
317.047	0.07
317.51	0.06
317.973	0.06
318.437	0.06
318.9	0.06
319.363	0.06
319.826	0.06
320.29	0.06
320.753	0.06
321.216	0.06
321.679	0.06
322.142	0.06
322.605	0.06
323.068	0.06
323.531	0.06
323.994	0.06
324.457	0.06
324.92	0.06
325.382	0.06
325.845	0.06
326.308	0.06
326.771	0.06
327.233	0.06
327.696	0.06
328.159	0.06
328.622	0.06
329.084	0.06
329.547	0.06
330.009	0.06
330.472	0.05
330.934	0.05
331.397	0.05
331.859	0.05
332.322	0.05
332.784	0.05
333.246	0.05
333.709	0.05
334.171	0.05
334.633	0.05
335.096	0.05
335.558	0.05
336.02	0.05
336.482	0.05
336.944	0.05
337.406	0.05
337.868	0.05
338.331	0.05
338.793	0.05
339.255	0.05
339.717	0.05
340.178	0.05
340.64	0.05
341.102	0.05
341.564	0.05
342.026	0.05
342.488	0.04
342.949	0.04
343.411	0.04
343.873	0.04
344.335	0.04
344.796	0.04
345.258	0.04
345.719	0.04
346.181	0.04
346.643	0.04
347.104	0.04
347.566	0.04
348.027	0.04
348.488	0.04
348.95	0.04
349.411	0.04
349.873	0.04
350.334	0.03
350.795	0.03
351.256	0.03
351.718	0.03
352.179	0.03
352.64	0.03
353.101	0.03
353.562	0.03
354.023	0.03
354.484	0.02
354.945	0.02
355.406	0.02
355.867	0.02
356.328	0.02
356.789	0.02
357.25	0.02
357.711	0.02
358.172	0.02
358.633	0.02
359.093	0.02
359.554	0.02
360.015	0.02
360.476	0.03
360.936	0.03
361.397	0.03
361.858	0.03
362.318	0.03
362.779	0.03
363.239	0.03
363.7	0.03
364.16	0.03
364.621	0.03
365.081	0.03
365.541	0.03
366.002	0.03
366.462	0.03
366.922	0.03
367.383	0.03
367.843	0.02
368.303	0.02
368.763	0.02
369.223	0.02
369.684	0.02
370.144	0.02
370.604	0.02
371.064	0.02
371.524	0.02
371.984	0.02
372.444	0.02
372.904	0.02
373.363	0.02
373.823	0.02
374.283	0.02
374.743	0.02
375.203	0.02
375.663	0.02
376.122	0.02
376.582	0.02
377.042	0.02
377.501	0.02
377.961	0.02
378.42	0.02
378.88	0.02
379.34	0.02
379.799	0.02
380.259	0.02
380.718	0.02
381.177	0.02
381.637	0.02
382.096	0.02
382.555	0.02
383.015	0.02
383.474	0.02
383.933	0.02
384.393	0.02
384.852	0.02
385.311	0.02
385.77	0.02
386.229	0.02
386.688	0.02
387.147	0.02
387.606	0.02
388.065	0.02
388.524	0.02
388.983	0.02
389.442	0.02
389.901	0.02
390.36	0.02
390.819	0.02
391.277	0.02
391.736	0.03
392.195	0.03
392.654	0.03
393.112	0.03
393.571	0.03
394.03	0.03
394.488	0.03
394.947	0.03
395.405	0.03
395.864	0.02
396.322	0.02
396.781	0.03
397.239	0.03
397.698	0.03
398.156	0.03
398.614	0.03
399.073	0.03
399.531	0.03
399.989	0.03
400.447	0.03
400.905	0.02
401.364	0.02
401.822	0.02
402.28	0.02
402.738	0.02
403.196	0.02
403.654	0.02
404.112	0.02
404.57	0.02
405.028	0.02
405.486	0.02
405.944	0.02
406.402	0.02
406.859	0.02
407.317	0.02
407.775	0.02
408.233	0.02
408.691	0.02
409.148	0.02
409.606	0.02
410.064	0.02
410.521	0.02
410.979	0.02
411.436	0.02
411.894	0.02
412.351	0.02
412.809	0.02
413.266	0.01
413.724	0.02
414.181	0.01
414.638	0.01
415.096	0.01
415.553	0.01
416.01	0.01
416.467	0.01
416.925	0.01
417.382	0.01
417.839	0.01
418.296	0.01
418.753	0.01
419.21	0.01
419.667	0.02
420.124	0.02
420.581	0.02
421.038	0.02
421.495	0.02
421.952	0.02
422.409	0.02
422.866	0.02
423.322	0.02
423.779	0.02
424.236	0.02
424.693	0.02
425.149	0.02
425.606	0.02
426.063	0.01
426.519	0.01
426.976	0.01
427.433	0.01
427.889	0.02
428.346	0.02
428.802	0.02
429.258	0.02
429.715	0.02
430.171	0.02
430.628	0.02
431.084	0.02
431.54	0.02
431.997	0.02
432.453	0.02
432.909	0.01
433.365	0.01
433.821	0.01
434.277	0.01
434.734	0.01
435.19	0.01
435.646	0.01
436.102	0.01
436.558	0.01
437.014	0.01
437.47	0.01
437.925	0.01
438.381	0.01
438.837	0.01
439.293	0.01
439.749	0.01
440.205	0.01
440.66	0.01
441.116	0.01
441.572	0.01
442.027	0.01
442.483	0.01
442.939	0.01
443.394	0.01
443.85	0.01
444.305	0.01
444.761	0.01
445.216	0.01
445.672	0.01
446.127	0.01
446.582	0.01
447.038	0.01
447.493	0.01
447.948	0.01
448.403	0.01
448.859	0.01
449.314	0.01
449.769	0.01
450.224	0.01
450.679	0.01
451.134	0.01
451.589	0.01
452.044	0.01
452.499	0
452.954	0
453.409	0
453.864	0
454.319	0
454.774	-0
455.229	-0
455.684	-0
456.138	-0
456.593	-0
457.048	-0
457.503	-0
457.957	-0
458.412	-0
458.866	-0
459.321	-0
459.776	-0
460.23	-0
460.685	-0.01
461.139	-0.01
461.593	-0.01
462.048	-0.01
462.502	-0.01
462.957	-0.01
463.411	-0.01
463.865	-0.01
464.319	-0.01
464.774	-0.01
465.228	-0.01
465.682	-0.01
466.136	-0.01
466.59	-0.01
467.044	-0.01
467.499	-0.01
467.953	-0.01
468.407	-0.02
468.861	-0.02
469.315	-0.02
469.768	-0.02
470.222	-0.02
470.676	-0.03
471.13	-0.03
471.584	-0.03
472.038	-0.03
472.491	-0.03
472.945	-0.03
473.399	-0.02
473.852	-0.02
474.306	-0.02
474.76	-0.02
475.213	-0.02
475.667	-0.02
476.12	-0.02
476.574	-0.02
477.027	-0.02
477.481	-0.02
477.934	-0.02
478.388	-0.02
478.841	-0.02
479.294	-0.02
479.748	-0.02
480.201	-0.02
480.654	-0.02
481.107	-0.02
481.561	-0.02
482.014	-0.02
482.467	-0.02
482.92	-0.02
483.373	-0.01
483.826	-0.01
484.279	-0.01
484.732	-0
485.185	-0
485.638	-0
486.091	-0
486.544	-0
486.997	-0
487.449	-0
487.902	-0
488.355	-0.01
488.808	-0.01
489.26	-0.02
489.713	-0.02
490.166	-0.02
490.618	-0.03
491.071	-0.03
491.523	-0.03
491.976	-0.03
492.429	-0.03
492.881	-0.03
493.333	-0.03
493.786	-0.03
494.238	-0.03
494.691	-0.03
495.143	-0.02
495.595	-0.03
496.048	-0.03
496.5	-0.03
496.952	-0.03
497.404	-0.03
497.856	-0.03
498.309	-0.03
498.761	-0.03
499.213	-0.03
499.665	-0.03
500.117	-0.03
500.569	-0.03
501.021	-0.03
501.473	-0.03
501.925	-0.03
502.377	-0.03
502.828	-0.03
503.28	-0.03
503.732	-0.03
504.184	-0.03
504.636	-0.03
505.087	-0.03
505.539	-0.03
505.991	-0.03
506.442	-0.03
506.894	-0.04
507.345	-0.04
507.797	-0.04
508.249	-0.04
508.7	-0.04
509.151	-0.04
509.603	-0.04
510.054	-0.04
510.506	-0.04
510.957	-0.04
511.408	-0.04
511.86	-0.05
512.311	-0.05
512.762	-0.05
513.213	-0.05
513.665	-0.05
514.116	-0.05
514.567	-0.06
515.018	-0.06
515.469	-0.06
515.92	-0.06
516.371	-0.06
516.822	-0.06
517.273	-0.06
517.724	-0.06
518.175	-0.06
518.626	-0.06
519.076	-0.06
519.527	-0.07
519.978	-0.07
520.429	-0.07
520.88	-0.07
521.33	-0.08
521.781	-0.08
522.232	-0.09
522.682	-0.09
523.133	-0.09
523.583	-0.1
524.034	-0.1
524.484	-0.1
524.935	-0.1
525.385	-0.1
525.836	-0.09
526.286	-0.09
526.736	-0.08
527.187	-0.08
527.637	-0.07
528.087	-0.07
528.538	-0.06
528.988	-0.06
529.438	-0.05
529.888	-0.05
530.338	-0.05
530.788	-0.05
531.238	-0.05
531.688	-0.04
532.139	-0.04
532.589	-0.04
533.038	-0.04
533.488	-0.04
533.938	-0.04
534.388	-0.04
534.838	-0.04
535.288	-0.03
535.738	-0.03
536.187	-0.03
536.637	-0.03
537.087	-0.03
537.537	-0.03
537.986	-0.03
538.436	-0.03
538.885	-0.03
539.335	-0.03
539.785	-0.02
540.234	-0.02
540.684	-0.02
541.133	-0.02
541.582	-0.02
542.032	-0.02
542.481	-0.02
542.931	-0.02
543.38	-0.02
543.829	-0.02
544.278	-0.02
544.728	-0.02
545.177	-0.02
545.626	-0.02
546.075	-0.01
546.524	-0.01
546.973	-0.01
547.422	-0.01
547.871	-0.01
548.32	-0.01
548.769	-0.02
549.218	-0.02
549.667	-0.02
550.116	-0.02
550.565	-0.02
551.014	-0.02
551.463	-0.02
551.911	-0.02
552.36	-0.02
552.809	-0.02
553.258	-0.01
553.706	-0.01
554.155	-0.01
554.603	-0.01
555.052	-0.01
555.501	-0.01
555.949	-0.01
556.398	-0.02
556.846	-0.02
557.294	-0.02
557.743	-0.02
558.191	-0.02
558.64	-0.02
559.088	-0.02
559.536	-0.02
559.985	-0.01
560.433	-0.01
560.881	-0.01
561.329	-0.01
561.777	-0
562.225	-0
562.674	-0
563.122	-0
563.57	-0
564.018	-0
564.466	-0
564.914	-0
565.362	-0
565.809	-0
566.257	-0
566.705	0
567.153	0
567.601	0.01
568.048	0.01
568.496	0.02
568.944	0.02
569.392	0.03
569.839	0.04
570.287	0.04
570.734	0.04
571.182	0.05
571.63	0.05
572.077	0.06
572.525	0.06
572.972	0.06
573.419	0.06
573.867	0.06
574.314	0.07
574.761	0.07
575.209	0.07
575.656	0.07
576.103	0.08
576.551	0.08
576.998	0.08
577.445	0.08
577.892	0.08
578.339	0.08
578.786	0.08
579.233	0.08
579.68	0.09
580.127	0.09
580.574	0.09
581.021	0.08
581.468	0.08
581.915	0.08
582.362	0.08
582.809	0.08
583.255	0.09
583.702	0.09
584.149	0.08
584.596	0.08
585.042	0.08
585.489	0.08
585.936	0.08
586.382	0.08
586.829	0.08
587.275	0.08
587.722	0.08
588.168	0.07
588.615	0.07
589.061	0.07
589.508	0.07
589.954	0.06
590.4	0.06
590.847	0.06
591.293	0.07
591.739	0.07
592.185	0.07
592.632	0.07
593.078	0.07
593.524	0.07
593.97	0.07
594.416	0.07
594.862	0.07
595.308	0.07
595.754	0.07
596.2	0.06
596.646	0.06
597.092	0.07
597.538	0.07
597.984	0.07
598.43	0.07
598.876	0.08
599.321	0.08
599.767	0.08
600.213	0.08
600.659	0.07
601.104	0.07
601.55	0.07
601.995	0.07
602.441	0.07
602.887	0.07
603.332	0.07
603.778	0.07
604.223	0.07
604.668	0.07
605.114	0.07
605.559	0.08
606.005	0.08
606.45	0.08
606.895	0.07
607.341	0.07
607.786	0.07
608.231	0.07
608.676	0.07
609.121	0.07
609.566	0.07
610.012	0.07
610.457	0.07
610.902	0.06
611.347	0.06
611.792	0.07
612.237	0.07
612.682	0.07
613.127	0.07
613.571	0.07
614.016	0.07
614.461	0.07
614.906	0.07
615.351	0.06
615.795	0.06
616.24	0.06
616.685	0.06
617.129	0.06
617.574	0.05
618.019	0.05
618.463	0.05
618.908	0.04
619.352	0.04
619.797	0.04
620.241	0.05
620.686	0.05
621.13	0.05
621.574	0.05
622.019	0.05
622.463	0.05
622.907	0.05
623.352	0.05
623.796	0.05
624.24	0.05
624.684	0.05
625.128	0.05
625.572	0.04
626.016	0.04
626.461	0.04
626.905	0.04
627.349	0.04
627.793	0.04
628.236	0.04
628.68	0.04
629.124	0.04
629.568	0.04
630.012	0.03
630.456	0.03
630.9	0.03
631.343	0.03
631.787	0.03
632.231	0.02
632.674	0.02
633.118	0.02
633.562	0.02
634.005	0.02
634.449	0.02
634.892	0.02
635.336	0.02
635.779	0.03
636.223	0.03
636.666	0.03
637.109	0.03
637.553	0.03
637.996	0.03
638.439	0.03
638.883	0.03
639.326	0.02
639.769	0.02
640.212	0.02
640.655	0.02
641.099	0.02
641.542	0.02
641.985	0.02
642.428	0.03
642.871	0.03
643.314	0.03
643.757	0.03
644.2	0.03
644.643	0.03
645.085	0.03
645.528	0.03
645.971	0.03
646.414	0.04
646.857	0.04
647.299	0.04
647.742	0.04
648.185	0.04
648.627	0.05
649.07	0.05
649.513	0.05
649.955	0.05
650.398	0.05
650.84	0.05
651.283	0.05
651.725	0.05
652.168	0.05
652.61	0.05
653.052	0.05
653.495	0.05
653.937	0.05
654.379	0.05
654.821	0.06
655.264	0.06
655.706	0.06
656.148	0.06
656.59	0.07
657.032	0.07
657.474	0.07
657.916	0.06
658.358	0.07
658.8	0.07
659.242	0.07
659.684	0.06
660.126	0.06
660.568	0.06
661.01	0.06
661.452	0.06
661.894	0.06
662.335	0.06
662.777	0.06
663.219	0.06
663.661	0.07
664.102	0.07
664.544	0.07
664.985	0.07
665.427	0.07
665.869	0.07
666.31	0.07
666.752	0.07
667.193	0.07
667.634	0.07
668.076	0.08
668.517	0.08
668.959	0.08
669.4	0.08
669.841	0.08
670.282	0.09
670.724	0.09
671.165	0.09
671.606	0.09
672.047	0.09
672.488	0.09
672.929	0.09
673.37	0.09
673.811	0.09
674.252	0.08
674.693	0.08
675.134	0.08
675.575	0.08
676.016	0.08
676.457	0.08
676.898	0.08
677.339	0.09
677.78	0.09
678.22	0.09
678.661	0.09
679.102	0.09
679.542	0.09
679.983	0.1
680.424	0.1
680.864	0.1
681.305	0.1
681.745	0.1
682.186	0.1
682.626	0.1
683.067	0.1
683.507	0.1
683.948	0.11
684.388	0.11
684.828	0.11
685.269	0.11
685.709	0.11
686.149	0.11
686.589	0.11
687.029	0.11
687.47	0.11
687.91	0.11
688.35	0.11
688.79	0.11
689.23	0.11
689.67	0.11
690.11	0.11
690.55	0.11
690.99	0.12
691.43	0.12
691.87	0.12
692.31	0.12
692.749	0.12
693.189	0.12
693.629	0.12
694.069	0.12
694.508	0.12
694.948	0.12
695.388	0.12
695.827	0.12
696.267	0.12
696.706	0.12
697.146	0.12
697.586	0.13
698.025	0.12
698.464	0.12
698.904	0.12
699.343	0.13
699.783	0.12
700.222	0.12
700.661	0.12
701.101	0.12
701.54	0.12
701.979	0.12
702.418	0.12
702.857	0.12
703.297	0.12
703.736	0.12
704.175	0.12
704.614	0.13
705.053	0.13
705.492	0.13
705.931	0.13
706.37	0.13
706.809	0.13
707.248	0.13
707.687	0.13
708.125	0.13
708.564	0.13
709.003	0.13
709.442	0.13
709.88	0.12
710.319	0.12
710.758	0.12
711.196	0.12
711.635	0.12
712.074	0.12
712.512	0.12
712.951	0.12
713.389	0.12
713.828	0.12
714.266	0.12
714.705	0.12
715.143	0.11
715.581	0.11
716.02	0.11
716.458	0.11
716.896	0.11
717.334	0.11
717.773	0.11
718.211	0.11
718.649	0.1
719.087	0.1
719.525	0.1
719.963	0.1
720.401	0.1
720.839	0.1
721.277	0.1
721.715	0.1
722.153	0.1
722.591	0.1
723.029	0.1
723.467	0.1
723.905	0.1
724.342	0.1
724.78	0.09
725.218	0.09
725.656	0.09
726.093	0.09
726.531	0.09
726.969	0.09
727.406	0.09
727.844	0.09
728.281	0.09
728.719	0.09
729.156	0.09
729.594	0.09
730.031	0.09
730.469	0.09
730.906	0.09
731.343	0.09
731.781	0.09
732.218	0.09
732.655	0.09
733.092	0.09
733.53	0.08
733.967	0.08
734.404	0.08
734.841	0.08
735.278	0.08
735.715	0.07
736.152	0.07
736.589	0.07
737.026	0.07
737.463	0.07
737.9	0.07
738.337	0.06
738.774	0.06
739.211	0.06
739.647	0.05
740.084	0.05
740.521	0.05
740.958	0.05
741.394	0.04
741.831	0.03
742.268	0.03
742.704	0.02
743.141	0.02
743.577	0.02
744.014	0.01
744.45	0.01
744.887	0.01
745.323	0.01
745.76	0.01
746.196	0.01
746.632	0.01
747.069	0.01
747.505	0.02
747.941	0.02
748.378	0.02
748.814	0.02
749.25	0.02
749.686	0.02
750.122	0.02
750.558	0.03
750.994	0.03
751.43	0.03
751.866	0.03
752.302	0.03
752.738	0.03
753.174	0.03
753.61	0.03
754.046	0.03
754.482	0.03
754.918	0.03
755.354	0.03
755.789	0.04
756.225	0.04
756.661	0.04
757.096	0.04
757.532	0.04
757.968	0.04
758.403	0.04
758.839	0.04
759.274	0.03
759.71	0.03
760.145	0.03
760.581	0.02
761.016	0.02
761.452	0.01
761.887	0.01
762.322	0.01
762.758	0.01
763.193	0.01
763.628	0.01
764.063	0
764.499	-0
764.934	-0.01
765.369	-0.01
765.804	-0.01
766.239	-0.01
766.674	-0.01
767.109	-0.01
767.544	-0.02
767.979	-0.02
768.414	-0.02
768.849	-0.02
769.284	-0.02
769.719	-0.02
770.154	-0.03
770.588	-0.03
771.023	-0.03
771.458	-0.04
771.893	-0.04
772.327	-0.04
772.762	-0.05
773.197	-0.05
773.631	-0.05
774.066	-0.05
774.5	-0.06
774.935	-0.05
775.369	-0.06
775.804	-0.06
776.238	-0.06
776.673	-0.06
777.107	-0.05
777.541	-0.05
777.976	-0.05
778.41	-0.05
778.844	-0.05
779.279	-0.04
779.713	-0.04
780.147	-0.03
780.581	-0.03
781.015	-0.03
781.449	-0.03
781.883	-0.03
782.317	-0.03
782.751	-0.03
783.185	-0.02
783.619	-0.02
784.053	-0.03
784.487	-0.03
784.921	-0.03
785.355	-0.03
785.789	-0.03
786.223	-0.03
786.656	-0.03
787.09	-0.02
787.524	-0.02
787.957	-0.02
788.391	-0.02
788.825	-0.02
789.258	-0.02
789.692	-0.02
790.125	-0.02
790.559	-0.02
790.992	-0.02
791.426	-0.02
791.859	-0.02
792.293	-0.01
792.726	-0.01
793.159	-0
793.593	-0
794.026	-0
794.459	-0.01
794.892	-0.01
795.326	-0.01
795.759	-0.01
796.192	-0.01
796.625	-0.02
797.058	-0.03
797.491	-0.04
797.924	-0.04
798.357	-0.04
798.79	-0.04
799.223	-0.04
799.656	-0.04
800.089	-0.04
800.522	-0.04
800.955	-0.04
801.387	-0.04
801.82	-0.04
802.253	-0.05
802.686	-0.05
803.118	-0.05
803.551	-0.05
803.984	-0.04
804.416	-0.04
804.849	-0.03
805.281	-0.03
805.714	-0.03
806.146	-0.03
806.579	-0.03
807.011	-0.03
807.444	-0.03
807.876	-0.03
808.308	-0.03
808.741	-0.03
809.173	-0.04
809.605	-0.04
810.037	-0.04
810.47	-0.05
810.902	-0.05
811.334	-0.05
811.766	-0.05
812.198	-0.04
812.63	-0.04
813.062	-0.04
813.494	-0.04
813.926	-0.04
814.358	-0.04
814.79	-0.04
815.222	-0.03
815.654	-0.03
816.086	-0.03
816.518	-0.04
816.949	-0.04
817.381	-0.04
817.813	-0.04
818.245	-0.04
818.676	-0.03
819.108	-0.03
819.54	-0.03
819.971	-0.03
820.403	-0.04
820.834	-0.04
821.266	-0.04
821.697	-0.04
822.129	-0.04
822.56	-0.04
822.991	-0.04
823.423	-0.04
823.854	-0.04
824.286	-0.04
824.717	-0.04
825.148	-0.03
825.579	-0.03
826.01	-0.03
826.442	-0.03
826.873	-0.02
827.304	-0.02
827.735	-0.02
828.166	-0.01
828.597	-0.01
829.028	-0.01
829.459	-0.01
829.89	-0
830.321	-0
830.752	0
831.183	0.01
831.613	0.02
832.044	0.02
832.475	0.03
832.906	0.03
833.336	0.04
833.767	0.04
834.198	0.05
834.628	0.05
835.059	0.05
835.49	0.06
835.92	0.06
836.351	0.06
836.781	0.06
837.212	0.07
837.642	0.07
838.072	0.07
838.503	0.07
838.933	0.07
839.364	0.07
839.794	0.08
840.224	0.08
840.654	0.08
841.085	0.08
841.515	0.09
841.945	0.09
842.375	0.09
842.805	0.1
843.235	0.1
843.665	0.1
844.095	0.11
844.525	0.11
844.955	0.11
845.385	0.12
845.815	0.12
846.245	0.12
846.675	0.13
847.105	0.13
847.534	0.13
847.964	0.14
848.394	0.14
848.824	0.14
849.253	0.14
849.683	0.15
850.112	0.15
850.542	0.15
850.972	0.15
851.401	0.15
851.831	0.16
852.26	0.16
852.69	0.16
853.119	0.16
853.548	0.16
853.978	0.16
854.407	0.17
854.836	0.17
855.266	0.17
855.695	0.17
856.124	0.18
856.553	0.18
856.983	0.18
857.412	0.18
857.841	0.18
858.27	0.18
858.699	0.18
859.128	0.18
859.557	0.19
859.986	0.19
860.415	0.19
860.844	0.19
861.273	0.19
861.702	0.19
862.13	0.19
862.559	0.2
862.988	0.2
863.417	0.2
863.845	0.2
864.274	0.2
864.703	0.2
865.131	0.21
865.56	0.21
865.989	0.21
866.417	0.21
866.846	0.21
867.274	0.21
867.703	0.21
868.131	0.22
868.559	0.22
868.988	0.22
869.416	0.22
869.844	0.22
870.273	0.22
870.701	0.22
871.129	0.22
871.557	0.22
871.986	0.22
872.414	0.22
872.842	0.23
873.27	0.23
873.698	0.23
874.126	0.23
874.554	0.23
874.982	0.23
875.41	0.23
875.838	0.23
876.266	0.23
876.694	0.23
877.122	0.23
877.549	0.23
877.977	0.23
878.405	0.23
878.833	0.23
879.26	0.23
879.688	0.23
880.116	0.23
880.543	0.23
880.971	0.23
881.399	0.23
881.826	0.23
882.254	0.23
882.681	0.23
883.109	0.22
883.536	0.22
883.963	0.23
884.391	0.23
884.818	0.23
885.245	0.23
885.673	0.23
886.1	0.23
886.527	0.23
886.954	0.23
887.381	0.23
887.809	0.24
888.236	0.24
888.663	0.24
889.09	0.24
889.517	0.24
889.944	0.24
890.371	0.24
890.798	0.24
891.225	0.24
891.652	0.24
892.078	0.24
892.505	0.24
892.932	0.24
893.359	0.24
893.786	0.24
894.212	0.24
894.639	0.24
895.066	0.24
895.492	0.24
895.919	0.24
896.346	0.24
896.772	0.24
897.199	0.25
897.625	0.25
898.052	0.25
898.478	0.25
898.904	0.25
899.331	0.25
899.757	0.25
900.183	0.25
900.61	0.25
901.036	0.25
901.462	0.25
901.888	0.25
902.315	0.25
902.741	0.25
903.167	0.25
903.593	0.25
904.019	0.25
904.445	0.25
904.871	0.25
905.297	0.25
905.723	0.25
906.149	0.25
906.575	0.25
907.001	0.25
907.427	0.25
907.852	0.25
908.278	0.25
908.704	0.25
909.13	0.25
909.555	0.25
909.981	0.25
910.407	0.25
910.832	0.25
911.258	0.25
911.684	0.25
912.109	0.25
912.535	0.25
912.96	0.25
913.386	0.25
913.811	0.25
914.236	0.25
914.662	0.25
915.087	0.25
915.512	0.25
915.938	0.25
916.363	0.25
916.788	0.25
917.213	0.25
917.639	0.26
918.064	0.26
918.489	0.26
918.914	0.26
919.339	0.26
919.764	0.26
920.189	0.26
920.614	0.26
921.039	0.26
921.464	0.26
921.889	0.27
922.314	0.27
922.738	0.27
923.163	0.27
923.588	0.27
924.013	0.27
924.437	0.27
924.862	0.27
925.287	0.27
925.711	0.27
926.136	0.27
926.561	0.27
926.985	0.27
927.41	0.27
927.834	0.27
928.259	0.27
928.683	0.27
929.108	0.28
929.532	0.28
929.956	0.28
930.381	0.28
930.805	0.28
931.229	0.28
931.653	0.28
932.078	0.29
932.502	0.29
932.926	0.29
933.35	0.29
933.774	0.29
934.198	0.29
934.622	0.3
935.046	0.3
935.47	0.3
935.894	0.3
936.318	0.31
936.742	0.31
937.166	0.32
937.59	0.32
938.014	0.33
938.437	0.33
938.861	0.34
939.285	0.35
939.709	0.35
940.132	0.36
940.556	0.36
940.98	0.37
941.403	0.37
941.827	0.38
942.25	0.38
942.674	0.38
943.097	0.38
943.521	0.39
943.944	0.39
944.368	0.39
944.791	0.39
945.214	0.39
945.638	0.39
946.061	0.39
946.484	0.38
946.907	0.38
947.331	0.38
947.754	0.38
948.177	0.37
948.6	0.37
949.023	0.37
949.446	0.36
949.869	0.36
950.292	0.35
950.715	0.35
951.138	0.34
951.561	0.34
951.984	0.34
952.407	0.33
952.83	0.33
953.252	0.33
953.675	0.33
954.098	0.33
954.521	0.33
954.943	0.33
955.366	0.33
955.789	0.33
956.211	0.33
956.634	0.32
957.056	0.32
957.479	0.32
957.902	0.32
958.324	0.32
958.746	0.32
959.169	0.31
959.591	0.31
960.014	0.31
960.436	0.31
960.858	0.31
961.281	0.31
961.703	0.31
962.125	0.31
962.547	0.31
962.969	0.31
963.391	0.31
963.814	0.31
964.236	0.31
964.658	0.31
965.08	0.31
965.502	0.3
965.924	0.3
966.346	0.3
966.768	0.3
967.189	0.3
967.611	0.3
968.033	0.3
968.455	0.3
968.877	0.3
969.298	0.3
969.72	0.3
970.142	0.31
970.563	0.31
970.985	0.31
971.407	0.31
971.828	0.31
972.25	0.31
972.671	0.31
973.093	0.31
973.514	0.31
973.936	0.31
974.357	0.31
974.778	0.31
975.2	0.31
975.621	0.31
976.042	0.3
976.464	0.3
976.885	0.3
977.306	0.3
977.727	0.3
978.148	0.3
978.57	0.3
978.991	0.3
979.412	0.3
979.833	0.3
980.254	0.3
980.675	0.3
981.096	0.3
981.517	0.3
981.937	0.3
982.358	0.3
982.779	0.3
983.2	0.3
983.621	0.3
984.042	0.3
984.462	0.29
984.883	0.29
985.304	0.29
985.724	0.29
986.145	0.29
986.565	0.29
986.986	0.29
987.407	0.29
987.827	0.29
988.248	0.29
988.668	0.29
989.088	0.29
989.509	0.29
989.929	0.29
990.35	0.29
990.77	0.29
991.19	0.29
991.61	0.29
992.031	0.29
992.451	0.29
992.871	0.29
993.291	0.28
993.711	0.28
994.131	0.28
994.551	0.28
994.971	0.28
995.391	0.28
995.811	0.28
996.231	0.28
996.651	0.28
997.071	0.28
997.491	0.28
997.911	0.28
998.331	0.28
998.75	0.28
999.17	0.28
999.59	0.28
1000.009	0.28
1000.429	0.28
1000.849	0.28
1001.268	0.28
1001.688	0.28
1002.107	0.28
1002.527	0.28
1002.946	0.28
1003.366	0.28
1003.785	0.27
1004.205	0.27
1004.624	0.27
1005.044	0.27
1005.463	0.27
1005.882	0.27
1006.301	0.27
1006.721	0.27
1007.14	0.27
1007.559	0.27
1007.978	0.27
1008.397	0.27
1008.816	0.27
1009.235	0.27
1009.655	0.27
1010.074	0.27
1010.492	0.27
1010.911	0.27
1011.33	0.27
1011.749	0.27
1012.168	0.27
1012.587	0.28
1013.006	0.28
1013.425	0.28
1013.843	0.28
1014.262	0.28
1014.681	0.28
1015.099	0.28
1015.518	0.28
1015.937	0.28
1016.355	0.28
1016.774	0.28
1017.192	0.28
1017.611	0.28
1018.029	0.28
1018.448	0.29
1018.866	0.29
1019.285	0.29
1019.703	0.29
1020.121	0.29
1020.54	0.29
1020.958	0.29
1021.376	0.29
1021.794	0.29
1022.213	0.29
1022.631	0.29
1023.049	0.29
1023.467	0.28
1023.885	0.28
1024.303	0.29
1024.721	0.29
1025.139	0.29
1025.557	0.29
1025.975	0.29
1026.393	0.29
1026.811	0.29
1027.229	0.29
1027.647	0.29
1028.065	0.29
1028.482	0.29
1028.9	0.29
1029.318	0.29
1029.735	0.29
1030.153	0.3
1030.571	0.3
1030.988	0.3
1031.406	0.3
1031.823	0.3
1032.241	0.3
1032.659	0.3
1033.076	0.3
1033.493	0.3
1033.911	0.3
1034.328	0.31
1034.746	0.31
1035.163	0.31
1035.58	0.31
1035.997	0.31
1036.415	0.32
1036.832	0.32
1037.249	0.32
1037.666	0.32
1038.083	0.32
1038.501	0.33
1038.918	0.33
1039.335	0.33
1039.752	0.33
1040.169	0.33
1040.586	0.33
1041.003	0.34
1041.419	0.34
1041.836	0.34
1042.253	0.34
1042.67	0.34
1043.087	0.34
1043.504	0.35
1043.92	0.35
1044.337	0.35
1044.754	0.35
1045.17	0.36
1045.587	0.36
1046.004	0.36
1046.42	0.36
1046.837	0.37
1047.253	0.37
1047.67	0.37
1048.086	0.37
1048.503	0.37
1048.919	0.37
1049.335	0.37
1049.752	0.37
1050.168	0.38
1050.584	0.38
1051.001	0.38
1051.417	0.39
1051.833	0.39
1052.249	0.39
1052.665	0.4
1053.081	0.4
1053.497	0.41
1053.914	0.41
1054.33	0.42
1054.746	0.42
1055.162	0.42
1055.578	0.42
1055.993	0.43
1056.409	0.43
1056.825	0.43
1057.241	0.43
1057.657	0.44
1058.073	0.44
1058.488	0.45
1058.904	0.45
1059.32	0.46
1059.736	0.47
1060.151	0.47
1060.567	0.48
1060.982	0.48
1061.398	0.49
1061.813	0.49
1062.229	0.5
1062.644	0.5
1063.06	0.5
1063.475	0.51
1063.891	0.51
1064.306	0.52
1064.721	0.52
1065.137	0.53
1065.552	0.54
1065.967	0.55
1066.382	0.55
1066.798	0.56
1067.213	0.57
1067.628	0.57
1068.043	0.58
1068.458	0.59
1068.873	0.6
1069.288	0.6
1069.703	0.61
1070.118	0.62
1070.533	0.63
1070.948	0.64
1071.363	0.66
1071.778	0.67
1072.193	0.69
1072.607	0.71
1073.022	0.72
1073.437	0.74
1073.852	0.76
1074.266	0.78
1074.681	0.8
1075.096	0.82
1075.51	0.84
1075.925	0.87
1076.339	0.9
1076.754	0.94
1077.168	0.97
1077.583	1.01
1077.997	1.06
1078.412	1.11
1078.826	1.17
1079.24	1.24
1079.655	1.31
1080.069	1.39
1080.483	1.48
1080.897	1.58
1081.312	1.74
1081.726	2
1082.14	2.88
1082.554	-0
1082.968	-0
1083.382	-0
1083.796	-0
1084.21	-0
1084.624	-0
1085.038	-0
1085.452	-0
1085.866	-0
1086.28	-0
1086.694	-0
1087.108	-0
1087.521	-0
1087.935	-0
1088.349	-0
1088.763	-0
1089.176	-0
1089.59	-0
1090.004	-0
1090.417	-0
1090.831	-0
1091.244	-0
1091.658	-0
1092.071	-0
1092.485	-0
1092.898	-0
1093.312	-0
1093.725	-0
1094.138	-0
1094.552	-0
1094.965	-0
1095.378	-0
1095.791	-0
1096.205	-0
1096.618	-0
1097.031	-0
1097.444	-0
1097.857	-0
1098.27	-0
1098.683	-0
1099.096	-0
1099.509	-0
1099.922	-0
1100.335	-0
1100.748	-0
1101.161	-0
1101.574	-0
1101.986	-0
1102.399	-0
1102.812	-0
1103.225	-0
1103.637	-0
1104.05	-0
1104.463	-0
1104.875	-0
1105.288	-0
1105.7	-0
1106.113	-0
1106.525	-0
1106.938	-0
1107.35	-0
1107.763	-0
1108.175	-0
1108.588	-0
1109	-0
1109.412	-0
1109.824	-0
1110.237	-0
1110.649	-0
1111.061	-0
