Data from redip-kinet-2-5a_Absorbance__24__00024.txt Node

Date: Fri Apr 12 13:46:18 CEST 2024
User: Laser008
Spectrometer: MAYP115816
Trigger mode: 0
Integration Time (sec): 2.000000E-1
Scans to average: 10
Electric dark correction enabled: true
Nonlinearity correction enabled: true
Boxcar width: 5
XAxis mode: Wavelengths
Number of Pixels in Spectrum: 2068
>>>>>Begin Spectral Data<<<<<
198.914	-2.46
199.384	-2.3
199.855	-2.16
200.325	-2.05
200.796	-1.98
201.266	-1.92
201.737	-1.84
202.207	-1.78
202.677	-1.73
203.147	-1.68
203.618	-1.66
204.088	-1.63
204.558	-1.61
205.028	-1.6
205.498	-1.59
205.968	-1.59
206.439	-1.59
206.909	-1.58
207.379	-1.58
207.849	-1.58
208.319	-1.57
208.789	-1.57
209.258	-1.57
209.728	-1.57
210.198	-1.57
210.668	-1.56
211.138	-1.56
211.608	-1.56
212.077	-1.56
212.547	-1.56
213.017	-1.56
213.486	-1.56
213.956	-1.56
214.426	-1.55
214.895	-1.55
215.365	-1.55
215.834	-1.55
216.304	-1.55
216.773	-1.55
217.243	-1.54
217.712	-1.54
218.181	-1.54
218.651	-1.54
219.12	-1.53
219.589	-1.53
220.058	-1.53
220.528	-1.52
220.997	-1.52
221.466	-1.52
221.935	-1.51
222.404	-1.51
222.873	-1.5
223.342	-1.5
223.812	-1.49
224.281	-1.48
224.749	-1.47
225.218	-1.46
225.687	-1.46
226.156	-1.44
226.625	-1.43
227.094	-1.42
227.563	-1.4
228.031	-1.38
228.5	-1.36
228.969	-1.33
229.438	-1.3
229.906	-1.27
230.375	-1.24
230.844	-1.2
231.312	-1.16
231.781	-1.12
232.249	-1.07
232.718	-1.02
233.186	-0.98
233.655	-0.93
234.123	-0.88
234.591	-0.83
235.06	-0.78
235.528	-0.73
235.996	-0.68
236.465	-0.64
236.933	-0.59
237.401	-0.55
237.869	-0.51
238.337	-0.47
238.805	-0.43
239.274	-0.4
239.742	-0.36
240.21	-0.33
240.678	-0.3
241.146	-0.28
241.614	-0.25
242.081	-0.23
242.549	-0.2
243.017	-0.18
243.485	-0.16
243.953	-0.14
244.421	-0.13
244.888	-0.11
245.356	-0.1
245.824	-0.08
246.291	-0.07
246.759	-0.06
247.227	-0.05
247.694	-0.03
248.162	-0.02
248.629	-0.01
249.097	-0.01
249.564	0
250.032	0.01
250.499	0.02
250.967	0.03
251.434	0.03
251.901	0.04
252.369	0.05
252.836	0.05
253.303	0.06
253.77	0.06
254.237	0.07
254.705	0.07
255.172	0.08
255.639	0.08
256.106	0.09
256.573	0.09
257.04	0.09
257.507	0.1
257.974	0.1
258.441	0.1
258.908	0.1
259.375	0.11
259.841	0.11
260.308	0.11
260.775	0.11
261.242	0.11
261.709	0.11
262.175	0.12
262.642	0.12
263.109	0.12
263.575	0.12
264.042	0.12
264.508	0.12
264.975	0.12
265.441	0.12
265.908	0.12
266.374	0.12
266.841	0.12
267.307	0.12
267.773	0.12
268.24	0.12
268.706	0.12
269.172	0.12
269.639	0.12
270.105	0.12
270.571	0.12
271.037	0.12
271.503	0.12
271.969	0.12
272.435	0.12
272.902	0.11
273.368	0.11
273.834	0.11
274.3	0.11
274.765	0.11
275.231	0.11
275.697	0.11
276.163	0.11
276.629	0.1
277.095	0.1
277.56	0.1
278.026	0.1
278.492	0.1
278.958	0.1
279.423	0.1
279.889	0.1
280.354	0.09
280.82	0.09
281.286	0.09
281.751	0.09
282.217	0.09
282.682	0.09
283.147	0.09
283.613	0.09
284.078	0.09
284.544	0.09
285.009	0.09
285.474	0.09
285.939	0.09
286.405	0.09
286.87	0.09
287.335	0.09
287.8	0.09
288.265	0.09
288.73	0.08
289.195	0.08
289.66	0.08
290.125	0.08
290.59	0.08
291.055	0.08
291.52	0.08
291.985	0.08
292.45	0.08
292.915	0.08
293.38	0.08
293.844	0.08
294.309	0.08
294.774	0.08
295.239	0.08
295.703	0.08
296.168	0.08
296.632	0.08
297.097	0.08
297.562	0.08
298.026	0.08
298.491	0.08
298.955	0.08
299.419	0.08
299.884	0.08
300.348	0.08
300.813	0.08
301.277	0.08
301.741	0.08
302.205	0.08
302.67	0.08
303.134	0.08
303.598	0.08
304.062	0.08
304.526	0.08
304.99	0.08
305.454	0.08
305.919	0.08
306.383	0.08
306.847	0.08
307.31	0.08
307.774	0.08
308.238	0.08
308.702	0.08
309.166	0.08
309.63	0.08
310.094	0.08
310.557	0.08
311.021	0.08
311.485	0.08
311.948	0.08
312.412	0.08
312.876	0.08
313.339	0.08
313.803	0.08
314.266	0.08
314.73	0.07
315.193	0.07
315.657	0.07
316.12	0.07
316.584	0.07
317.047	0.07
317.51	0.07
317.973	0.07
318.437	0.07
318.9	0.07
319.363	0.07
319.826	0.07
320.29	0.07
320.753	0.07
321.216	0.07
321.679	0.07
322.142	0.07
322.605	0.07
323.068	0.07
323.531	0.07
323.994	0.07
324.457	0.07
324.92	0.07
325.382	0.07
325.845	0.07
326.308	0.07
326.771	0.07
327.233	0.07
327.696	0.07
328.159	0.07
328.622	0.07
329.084	0.06
329.547	0.06
330.009	0.06
330.472	0.06
330.934	0.06
331.397	0.06
331.859	0.06
332.322	0.06
332.784	0.06
333.246	0.06
333.709	0.06
334.171	0.06
334.633	0.06
335.096	0.06
335.558	0.06
336.02	0.06
336.482	0.06
336.944	0.06
337.406	0.06
337.868	0.06
338.331	0.06
338.793	0.06
339.255	0.06
339.717	0.06
340.178	0.05
340.64	0.05
341.102	0.05
341.564	0.05
342.026	0.05
342.488	0.05
342.949	0.05
343.411	0.05
343.873	0.05
344.335	0.05
344.796	0.05
345.258	0.05
345.719	0.05
346.181	0.05
346.643	0.05
347.104	0.05
347.566	0.05
348.027	0.05
348.488	0.05
348.95	0.04
349.411	0.04
349.873	0.04
350.334	0.04
350.795	0.04
351.256	0.04
351.718	0.04
352.179	0.04
352.64	0.04
353.101	0.04
353.562	0.04
354.023	0.03
354.484	0.03
354.945	0.03
355.406	0.03
355.867	0.03
356.328	0.03
356.789	0.03
357.25	0.03
357.711	0.03
358.172	0.03
358.633	0.03
359.093	0.03
359.554	0.03
360.015	0.03
360.476	0.03
360.936	0.04
361.397	0.04
361.858	0.04
362.318	0.04
362.779	0.04
363.239	0.04
363.7	0.04
364.16	0.04
364.621	0.04
365.081	0.04
365.541	0.03
366.002	0.03
366.462	0.03
366.922	0.03
367.383	0.03
367.843	0.03
368.303	0.03
368.763	0.03
369.223	0.03
369.684	0.03
370.144	0.03
370.604	0.03
371.064	0.03
371.524	0.03
371.984	0.03
372.444	0.03
372.904	0.03
373.363	0.03
373.823	0.03
374.283	0.03
374.743	0.03
375.203	0.03
375.663	0.03
376.122	0.03
376.582	0.03
377.042	0.03
377.501	0.03
377.961	0.03
378.42	0.03
378.88	0.03
379.34	0.03
379.799	0.03
380.259	0.03
380.718	0.03
381.177	0.03
381.637	0.03
382.096	0.03
382.555	0.03
383.015	0.03
383.474	0.03
383.933	0.03
384.393	0.03
384.852	0.03
385.311	0.03
385.77	0.03
386.229	0.03
386.688	0.03
387.147	0.03
387.606	0.03
388.065	0.03
388.524	0.03
388.983	0.03
389.442	0.03
389.901	0.03
390.36	0.03
390.819	0.03
391.277	0.03
391.736	0.03
392.195	0.03
392.654	0.03
393.112	0.03
393.571	0.03
394.03	0.03
394.488	0.03
394.947	0.03
395.405	0.03
395.864	0.03
396.322	0.03
396.781	0.03
397.239	0.03
397.698	0.03
398.156	0.03
398.614	0.03
399.073	0.03
399.531	0.03
399.989	0.03
400.447	0.03
400.905	0.03
401.364	0.03
401.822	0.03
402.28	0.03
402.738	0.03
403.196	0.03
403.654	0.03
404.112	0.03
404.57	0.03
405.028	0.03
405.486	0.03
405.944	0.03
406.402	0.03
406.859	0.03
407.317	0.03
407.775	0.03
408.233	0.03
408.691	0.02
409.148	0.02
409.606	0.02
410.064	0.02
410.521	0.02
410.979	0.02
411.436	0.02
411.894	0.02
412.351	0.02
412.809	0.02
413.266	0.02
413.724	0.02
414.181	0.02
414.638	0.02
415.096	0.02
415.553	0.02
416.01	0.02
416.467	0.02
416.925	0.02
417.382	0.02
417.839	0.02
418.296	0.02
418.753	0.02
419.21	0.02
419.667	0.02
420.124	0.02
420.581	0.02
421.038	0.03
421.495	0.03
421.952	0.03
422.409	0.03
422.866	0.03
423.322	0.03
423.779	0.03
424.236	0.03
424.693	0.02
425.149	0.02
425.606	0.02
426.063	0.02
426.519	0.02
426.976	0.02
427.433	0.02
427.889	0.02
428.346	0.02
428.802	0.02
429.258	0.02
429.715	0.03
430.171	0.02
430.628	0.02
431.084	0.02
431.54	0.02
431.997	0.02
432.453	0.02
432.909	0.02
433.365	0.02
433.821	0.02
434.277	0.02
434.734	0.02
435.19	0.02
435.646	0.02
436.102	0.02
436.558	0.02
437.014	0.02
437.47	0.02
437.925	0.02
438.381	0.02
438.837	0.02
439.293	0.02
439.749	0.02
440.205	0.02
440.66	0.02
441.116	0.02
441.572	0.02
442.027	0.02
442.483	0.02
442.939	0.02
443.394	0.02
443.85	0.02
444.305	0.02
444.761	0.02
445.216	0.02
445.672	0.02
446.127	0.02
446.582	0.02
447.038	0.02
447.493	0.02
447.948	0.02
448.403	0.02
448.859	0.02
449.314	0.02
449.769	0.02
450.224	0.01
450.679	0.01
451.134	0.01
451.589	0.01
452.044	0.01
452.499	0.01
452.954	0.01
453.409	0.01
453.864	0.01
454.319	0.01
454.774	0.01
455.229	0.01
455.684	0
456.138	0
456.593	0
457.048	0
457.503	0
457.957	0
458.412	0
458.866	0
459.321	0
459.776	0
460.23	0
460.685	0
461.139	0
461.593	-0
462.048	-0
462.502	-0
462.957	-0
463.411	-0
463.865	0
464.319	0
464.774	-0
465.228	-0
465.682	-0
466.136	-0
466.59	-0
467.044	-0
467.499	-0
467.953	-0.01
468.407	-0.01
468.861	-0.01
469.315	-0.02
469.768	-0.02
470.222	-0.02
470.676	-0.02
471.13	-0.02
471.584	-0.02
472.038	-0.02
472.491	-0.02
472.945	-0.02
473.399	-0.02
473.852	-0.02
474.306	-0.02
474.76	-0.01
475.213	-0.01
475.667	-0.01
476.12	-0.01
476.574	-0.01
477.027	-0.01
477.481	-0.01
477.934	-0.01
478.388	-0.02
478.841	-0.02
479.294	-0.02
479.748	-0.01
480.201	-0.01
480.654	-0.01
481.107	-0.01
481.561	-0.01
482.014	-0.01
482.467	-0.01
482.92	-0.01
483.373	-0.01
483.826	-0
484.279	0
484.732	0
485.185	0
485.638	0
486.091	0.01
486.544	0.01
486.997	0
487.449	0
487.902	0
488.355	-0
488.808	-0.01
489.26	-0.01
489.713	-0.01
490.166	-0.02
490.618	-0.02
491.071	-0.02
491.523	-0.02
491.976	-0.02
492.429	-0.02
492.881	-0.02
493.333	-0.02
493.786	-0.02
494.238	-0.02
494.691	-0.02
495.143	-0.02
495.595	-0.02
496.048	-0.02
496.5	-0.02
496.952	-0.02
497.404	-0.02
497.856	-0.02
498.309	-0.02
498.761	-0.02
499.213	-0.02
499.665	-0.02
500.117	-0.02
500.569	-0.02
501.021	-0.02
501.473	-0.02
501.925	-0.02
502.377	-0.02
502.828	-0.02
503.28	-0.02
503.732	-0.02
504.184	-0.02
504.636	-0.02
505.087	-0.02
505.539	-0.02
505.991	-0.02
506.442	-0.03
506.894	-0.03
507.345	-0.03
507.797	-0.03
508.249	-0.03
508.7	-0.03
509.151	-0.03
509.603	-0.03
510.054	-0.03
510.506	-0.03
510.957	-0.03
511.408	-0.04
511.86	-0.04
512.311	-0.04
512.762	-0.04
513.213	-0.04
513.665	-0.04
514.116	-0.05
514.567	-0.05
515.018	-0.05
515.469	-0.05
515.92	-0.05
516.371	-0.05
516.822	-0.05
517.273	-0.05
517.724	-0.05
518.175	-0.05
518.626	-0.05
519.076	-0.06
519.527	-0.06
519.978	-0.06
520.429	-0.06
520.88	-0.07
521.33	-0.07
521.781	-0.07
522.232	-0.08
522.682	-0.08
523.133	-0.09
523.583	-0.09
524.034	-0.09
524.484	-0.09
524.935	-0.09
525.385	-0.09
525.836	-0.08
526.286	-0.08
526.736	-0.07
527.187	-0.07
527.637	-0.06
528.087	-0.06
528.538	-0.05
528.988	-0.05
529.438	-0.05
529.888	-0.04
530.338	-0.04
530.788	-0.04
531.238	-0.04
531.688	-0.04
532.139	-0.03
532.589	-0.03
533.038	-0.03
533.488	-0.03
533.938	-0.03
534.388	-0.03
534.838	-0.03
535.288	-0.03
535.738	-0.02
536.187	-0.02
536.637	-0.02
537.087	-0.02
537.537	-0.02
537.986	-0.02
538.436	-0.02
538.885	-0.02
539.335	-0.02
539.785	-0.02
540.234	-0.02
540.684	-0.02
541.133	-0.02
541.582	-0.02
542.032	-0.02
542.481	-0.01
542.931	-0.01
543.38	-0.01
543.829	-0.01
544.278	-0.01
544.728	-0.01
545.177	-0.01
545.626	-0.01
546.075	-0.01
546.524	-0
546.973	-0
547.422	-0.01
547.871	-0.01
548.32	-0.01
548.769	-0.01
549.218	-0.01
549.667	-0.01
550.116	-0.01
550.565	-0.01
551.014	-0.01
551.463	-0.01
551.911	-0.01
552.36	-0.01
552.809	-0.01
553.258	-0.01
553.706	-0
554.155	-0
554.603	-0
555.052	-0.01
555.501	-0.01
555.949	-0.01
556.398	-0.01
556.846	-0.01
557.294	-0.01
557.743	-0.01
558.191	-0.01
558.64	-0.01
559.088	-0.01
559.536	-0.01
559.985	-0.01
560.433	-0.01
560.881	-0
561.329	-0
561.777	0
562.225	0
562.674	0
563.122	0
563.57	0
564.018	0
564.466	0
564.914	-0
565.362	0
565.809	0
566.257	0
566.705	0.01
567.153	0.01
567.601	0.01
568.048	0.02
568.496	0.02
568.944	0.03
569.392	0.04
569.839	0.04
570.287	0.05
570.734	0.05
571.182	0.05
571.63	0.06
572.077	0.06
572.525	0.06
572.972	0.07
573.419	0.07
573.867	0.07
574.314	0.07
574.761	0.07
575.209	0.07
575.656	0.08
576.103	0.08
576.551	0.08
576.998	0.08
577.445	0.08
577.892	0.08
578.339	0.08
578.786	0.08
579.233	0.08
579.68	0.09
580.127	0.09
580.574	0.09
581.021	0.09
581.468	0.08
581.915	0.08
582.362	0.08
582.809	0.09
583.255	0.09
583.702	0.09
584.149	0.09
584.596	0.08
585.042	0.08
585.489	0.08
585.936	0.08
586.382	0.08
586.829	0.08
587.275	0.08
587.722	0.08
588.168	0.07
588.615	0.07
589.061	0.07
589.508	0.07
589.954	0.07
590.4	0.07
590.847	0.07
591.293	0.07
591.739	0.07
592.185	0.07
592.632	0.07
593.078	0.07
593.524	0.07
593.97	0.07
594.416	0.07
594.862	0.07
595.308	0.07
595.754	0.07
596.2	0.07
596.646	0.07
597.092	0.07
597.538	0.07
597.984	0.07
598.43	0.08
598.876	0.08
599.321	0.08
599.767	0.08
600.213	0.08
600.659	0.08
601.104	0.08
601.55	0.08
601.995	0.07
602.441	0.07
602.887	0.07
603.332	0.07
603.778	0.07
604.223	0.07
604.668	0.07
605.114	0.08
605.559	0.08
606.005	0.08
606.45	0.08
606.895	0.08
607.341	0.08
607.786	0.08
608.231	0.08
608.676	0.07
609.121	0.07
609.566	0.07
610.012	0.07
610.457	0.07
610.902	0.07
611.347	0.07
611.792	0.07
612.237	0.07
612.682	0.07
613.127	0.07
613.571	0.07
614.016	0.07
614.461	0.07
614.906	0.07
615.351	0.07
615.795	0.07
616.24	0.06
616.685	0.06
617.129	0.06
617.574	0.06
618.019	0.05
618.463	0.05
618.908	0.05
619.352	0.05
619.797	0.05
620.241	0.05
620.686	0.05
621.13	0.05
621.574	0.05
622.019	0.05
622.463	0.05
622.907	0.05
623.352	0.05
623.796	0.05
624.24	0.05
624.684	0.05
625.128	0.05
625.572	0.05
626.016	0.05
626.461	0.05
626.905	0.04
627.349	0.04
627.793	0.04
628.236	0.04
628.68	0.04
629.124	0.04
629.568	0.04
630.012	0.04
630.456	0.04
630.9	0.03
631.343	0.03
631.787	0.03
632.231	0.03
632.674	0.03
633.118	0.03
633.562	0.03
634.005	0.03
634.449	0.03
634.892	0.03
635.336	0.03
635.779	0.03
636.223	0.03
636.666	0.03
637.109	0.03
637.553	0.03
637.996	0.03
638.439	0.03
638.883	0.03
639.326	0.03
639.769	0.03
640.212	0.03
640.655	0.03
641.099	0.03
641.542	0.03
641.985	0.03
642.428	0.03
642.871	0.03
643.314	0.03
643.757	0.03
644.2	0.03
644.643	0.04
645.085	0.04
645.528	0.04
645.971	0.04
646.414	0.04
646.857	0.05
647.299	0.05
647.742	0.05
648.185	0.05
648.627	0.05
649.07	0.05
649.513	0.06
649.955	0.06
650.398	0.06
650.84	0.06
651.283	0.06
651.725	0.06
652.168	0.06
652.61	0.06
653.052	0.06
653.495	0.06
653.937	0.06
654.379	0.06
654.821	0.06
655.264	0.07
655.706	0.07
656.148	0.07
656.59	0.07
657.032	0.07
657.474	0.07
657.916	0.07
658.358	0.07
658.8	0.07
659.242	0.08
659.684	0.07
660.126	0.07
660.568	0.07
661.01	0.07
661.452	0.07
661.894	0.07
662.335	0.07
662.777	0.07
663.219	0.07
663.661	0.08
664.102	0.08
664.544	0.08
664.985	0.08
665.427	0.08
665.869	0.08
666.31	0.08
666.752	0.08
667.193	0.08
667.634	0.09
668.076	0.09
668.517	0.09
668.959	0.09
669.4	0.09
669.841	0.09
670.282	0.1
670.724	0.1
671.165	0.1
671.606	0.1
672.047	0.1
672.488	0.1
672.929	0.1
673.37	0.1
673.811	0.1
674.252	0.1
674.693	0.09
675.134	0.09
675.575	0.09
676.016	0.09
676.457	0.1
676.898	0.1
677.339	0.1
677.78	0.1
678.22	0.1
678.661	0.11
679.102	0.11
679.542	0.11
679.983	0.11
680.424	0.11
680.864	0.11
681.305	0.11
681.745	0.11
682.186	0.11
682.626	0.11
683.067	0.11
683.507	0.12
683.948	0.12
684.388	0.12
684.828	0.12
685.269	0.12
685.709	0.12
686.149	0.12
686.589	0.12
687.029	0.12
687.47	0.12
687.91	0.12
688.35	0.12
688.79	0.12
689.23	0.13
689.67	0.13
690.11	0.13
690.55	0.13
690.99	0.13
691.43	0.13
691.87	0.13
692.31	0.13
692.749	0.13
693.189	0.13
693.629	0.13
694.069	0.13
694.508	0.13
694.948	0.13
695.388	0.14
695.827	0.14
696.267	0.14
696.706	0.14
697.146	0.14
697.586	0.14
698.025	0.14
698.464	0.14
698.904	0.14
699.343	0.14
699.783	0.14
700.222	0.13
700.661	0.14
701.101	0.14
701.54	0.14
701.979	0.14
702.418	0.14
702.857	0.14
703.297	0.14
703.736	0.14
704.175	0.14
704.614	0.14
705.053	0.14
705.492	0.14
705.931	0.14
706.37	0.14
706.809	0.14
707.248	0.14
707.687	0.14
708.125	0.14
708.564	0.14
709.003	0.14
709.442	0.13
709.88	0.13
710.319	0.13
710.758	0.13
711.196	0.13
711.635	0.13
712.074	0.13
712.512	0.13
712.951	0.13
713.389	0.13
713.828	0.13
714.266	0.13
714.705	0.12
715.143	0.12
715.581	0.12
716.02	0.12
716.458	0.12
716.896	0.12
717.334	0.12
717.773	0.12
718.211	0.11
718.649	0.11
719.087	0.11
719.525	0.11
719.963	0.11
720.401	0.11
720.839	0.11
721.277	0.11
721.715	0.11
722.153	0.1
722.591	0.1
723.029	0.1
723.467	0.1
723.905	0.1
724.342	0.1
724.78	0.1
725.218	0.1
725.656	0.1
726.093	0.1
726.531	0.1
726.969	0.1
727.406	0.1
727.844	0.1
728.281	0.1
728.719	0.1
729.156	0.1
729.594	0.1
730.031	0.1
730.469	0.1
730.906	0.1
731.343	0.1
731.781	0.1
732.218	0.09
732.655	0.09
733.092	0.09
733.53	0.09
733.967	0.09
734.404	0.08
734.841	0.08
735.278	0.08
735.715	0.08
736.152	0.07
736.589	0.07
737.026	0.07
737.463	0.07
737.9	0.07
738.337	0.07
738.774	0.06
739.211	0.06
739.647	0.06
740.084	0.06
740.521	0.05
740.958	0.05
741.394	0.05
741.831	0.04
742.268	0.03
742.704	0.03
743.141	0.02
743.577	0.02
744.014	0.02
744.45	0.02
744.887	0.01
745.323	0.01
745.76	0.01
746.196	0.01
746.632	0.02
747.069	0.02
747.505	0.02
747.941	0.02
748.378	0.02
748.814	0.03
749.25	0.03
749.686	0.03
750.122	0.03
750.558	0.03
750.994	0.03
751.43	0.03
751.866	0.03
752.302	0.03
752.738	0.03
753.174	0.03
753.61	0.03
754.046	0.03
754.482	0.03
754.918	0.04
755.354	0.04
755.789	0.04
756.225	0.04
756.661	0.04
757.096	0.04
757.532	0.04
757.968	0.04
758.403	0.04
758.839	0.04
759.274	0.04
759.71	0.03
760.145	0.03
760.581	0.02
761.016	0.02
761.452	0.02
761.887	0.01
762.322	0.01
762.758	0.01
763.193	0.01
763.628	0.01
764.063	0
764.499	-0
764.934	-0
765.369	-0.01
765.804	-0.01
766.239	-0.01
766.674	-0.01
767.109	-0.01
767.544	-0.02
767.979	-0.02
768.414	-0.02
768.849	-0.02
769.284	-0.02
769.719	-0.02
770.154	-0.03
770.588	-0.03
771.023	-0.03
771.458	-0.04
771.893	-0.04
772.327	-0.04
772.762	-0.05
773.197	-0.05
773.631	-0.05
774.066	-0.06
774.5	-0.06
774.935	-0.06
775.369	-0.06
775.804	-0.06
776.238	-0.06
776.673	-0.06
777.107	-0.06
777.541	-0.05
777.976	-0.05
778.41	-0.05
778.844	-0.05
779.279	-0.04
779.713	-0.04
780.147	-0.04
780.581	-0.03
781.015	-0.03
781.449	-0.03
781.883	-0.03
782.317	-0.03
782.751	-0.03
783.185	-0.03
783.619	-0.03
784.053	-0.03
784.487	-0.03
784.921	-0.03
785.355	-0.03
785.789	-0.03
786.223	-0.03
786.656	-0.03
787.09	-0.02
787.524	-0.02
787.957	-0.02
788.391	-0.02
788.825	-0.03
789.258	-0.03
789.692	-0.02
790.125	-0.02
790.559	-0.02
790.992	-0.02
791.426	-0.03
791.859	-0.02
792.293	-0.01
792.726	-0.01
793.159	-0
793.593	-0
794.026	-0
794.459	-0.01
794.892	-0.01
795.326	-0.01
795.759	-0.01
796.192	-0.01
796.625	-0.02
797.058	-0.03
797.491	-0.04
797.924	-0.04
798.357	-0.04
798.79	-0.04
799.223	-0.04
799.656	-0.04
800.089	-0.04
800.522	-0.05
800.955	-0.05
801.387	-0.05
801.82	-0.05
802.253	-0.05
802.686	-0.05
803.118	-0.05
803.551	-0.05
803.984	-0.04
804.416	-0.04
804.849	-0.03
805.281	-0.03
805.714	-0.03
806.146	-0.03
806.579	-0.03
807.011	-0.03
807.444	-0.03
807.876	-0.03
808.308	-0.03
808.741	-0.04
809.173	-0.04
809.605	-0.04
810.037	-0.05
810.47	-0.05
810.902	-0.05
811.334	-0.05
811.766	-0.05
812.198	-0.04
812.63	-0.04
813.062	-0.04
813.494	-0.04
813.926	-0.04
814.358	-0.04
814.79	-0.04
815.222	-0.04
815.654	-0.03
816.086	-0.03
816.518	-0.04
816.949	-0.04
817.381	-0.04
817.813	-0.04
818.245	-0.04
818.676	-0.03
819.108	-0.03
819.54	-0.03
819.971	-0.04
820.403	-0.04
820.834	-0.04
821.266	-0.04
821.697	-0.04
822.129	-0.04
822.56	-0.04
822.991	-0.04
823.423	-0.04
823.854	-0.05
824.286	-0.05
824.717	-0.04
825.148	-0.04
825.579	-0.03
826.01	-0.03
826.442	-0.03
826.873	-0.03
827.304	-0.02
827.735	-0.02
828.166	-0.01
828.597	-0.01
829.028	-0.01
829.459	-0
829.89	-0
830.321	-0
830.752	0.01
831.183	0.01
831.613	0.02
832.044	0.02
832.475	0.03
832.906	0.03
833.336	0.04
833.767	0.04
834.198	0.05
834.628	0.05
835.059	0.05
835.49	0.06
835.92	0.06
836.351	0.06
836.781	0.06
837.212	0.07
837.642	0.07
838.072	0.07
838.503	0.07
838.933	0.07
839.364	0.07
839.794	0.08
840.224	0.08
840.654	0.08
841.085	0.08
841.515	0.09
841.945	0.09
842.375	0.09
842.805	0.1
843.235	0.1
843.665	0.1
844.095	0.11
844.525	0.11
844.955	0.11
845.385	0.11
845.815	0.12
846.245	0.12
846.675	0.12
847.105	0.13
847.534	0.13
847.964	0.13
848.394	0.14
848.824	0.14
849.253	0.14
849.683	0.14
850.112	0.15
850.542	0.15
850.972	0.15
851.401	0.15
851.831	0.15
852.26	0.15
852.69	0.16
853.119	0.16
853.548	0.16
853.978	0.16
854.407	0.16
854.836	0.16
855.266	0.17
855.695	0.17
856.124	0.17
856.553	0.17
856.983	0.17
857.412	0.18
857.841	0.18
858.27	0.18
858.699	0.18
859.128	0.18
859.557	0.18
859.986	0.18
860.415	0.18
860.844	0.18
861.273	0.19
861.702	0.19
862.13	0.19
862.559	0.19
862.988	0.19
863.417	0.19
863.845	0.2
864.274	0.2
864.703	0.2
865.131	0.2
865.56	0.2
865.989	0.2
866.417	0.2
866.846	0.21
867.274	0.21
867.703	0.21
868.131	0.21
868.559	0.21
868.988	0.21
869.416	0.21
869.844	0.21
870.273	0.22
870.701	0.22
871.129	0.22
871.557	0.22
871.986	0.22
872.414	0.22
872.842	0.22
873.27	0.22
873.698	0.22
874.126	0.22
874.554	0.22
874.982	0.22
875.41	0.22
875.838	0.22
876.266	0.22
876.694	0.22
877.122	0.22
877.549	0.22
877.977	0.22
878.405	0.22
878.833	0.22
879.26	0.22
879.688	0.22
880.116	0.22
880.543	0.22
880.971	0.22
881.399	0.22
881.826	0.22
882.254	0.22
882.681	0.22
883.109	0.22
883.536	0.22
883.963	0.22
884.391	0.22
884.818	0.22
885.245	0.22
885.673	0.22
886.1	0.22
886.527	0.22
886.954	0.23
887.381	0.23
887.809	0.23
888.236	0.23
888.663	0.23
889.09	0.23
889.517	0.23
889.944	0.23
890.371	0.23
890.798	0.23
891.225	0.23
891.652	0.23
892.078	0.23
892.505	0.23
892.932	0.23
893.359	0.23
893.786	0.23
894.212	0.23
894.639	0.23
895.066	0.23
895.492	0.23
895.919	0.24
896.346	0.24
896.772	0.24
897.199	0.24
897.625	0.24
898.052	0.24
898.478	0.24
898.904	0.24
899.331	0.24
899.757	0.24
900.183	0.24
900.61	0.24
901.036	0.24
901.462	0.24
901.888	0.24
902.315	0.24
902.741	0.24
903.167	0.24
903.593	0.24
904.019	0.24
904.445	0.24
904.871	0.24
905.297	0.24
905.723	0.24
906.149	0.24
906.575	0.24
907.001	0.24
907.427	0.24
907.852	0.24
908.278	0.24
908.704	0.24
909.13	0.24
909.555	0.24
909.981	0.24
910.407	0.24
910.832	0.24
911.258	0.24
911.684	0.24
912.109	0.24
912.535	0.24
912.96	0.24
913.386	0.24
913.811	0.24
914.236	0.24
914.662	0.24
915.087	0.24
915.512	0.24
915.938	0.24
916.363	0.24
916.788	0.24
917.213	0.25
917.639	0.25
918.064	0.25
918.489	0.25
918.914	0.25
919.339	0.25
919.764	0.25
920.189	0.25
920.614	0.25
921.039	0.25
921.464	0.26
921.889	0.26
922.314	0.26
922.738	0.26
923.163	0.26
923.588	0.26
924.013	0.26
924.437	0.26
924.862	0.26
925.287	0.26
925.711	0.26
926.136	0.26
926.561	0.26
926.985	0.26
927.41	0.26
927.834	0.26
928.259	0.26
928.683	0.27
929.108	0.27
929.532	0.27
929.956	0.27
930.381	0.27
930.805	0.27
931.229	0.27
931.653	0.27
932.078	0.28
932.502	0.28
932.926	0.28
933.35	0.28
933.774	0.28
934.198	0.28
934.622	0.29
935.046	0.29
935.47	0.29
935.894	0.29
936.318	0.3
936.742	0.3
937.166	0.31
937.59	0.31
938.014	0.32
938.437	0.32
938.861	0.33
939.285	0.33
939.709	0.34
940.132	0.34
940.556	0.35
940.98	0.35
941.403	0.36
941.827	0.36
942.25	0.36
942.674	0.37
943.097	0.37
943.521	0.37
943.944	0.37
944.368	0.37
944.791	0.37
945.214	0.37
945.638	0.37
946.061	0.37
946.484	0.37
946.907	0.37
947.331	0.36
947.754	0.36
948.177	0.36
948.6	0.35
949.023	0.35
949.446	0.35
949.869	0.34
950.292	0.34
950.715	0.33
951.138	0.33
951.561	0.33
951.984	0.32
952.407	0.32
952.83	0.32
953.252	0.32
953.675	0.32
954.098	0.32
954.521	0.32
954.943	0.32
955.366	0.32
955.789	0.32
956.211	0.31
956.634	0.31
957.056	0.31
957.479	0.31
957.902	0.31
958.324	0.31
958.746	0.31
959.169	0.3
959.591	0.3
960.014	0.3
960.436	0.3
960.858	0.3
961.281	0.3
961.703	0.3
962.125	0.3
962.547	0.3
962.969	0.3
963.391	0.3
963.814	0.3
964.236	0.3
964.658	0.3
965.08	0.3
965.502	0.3
965.924	0.3
966.346	0.3
966.768	0.3
967.189	0.3
967.611	0.3
968.033	0.3
968.455	0.3
968.877	0.3
969.298	0.3
969.72	0.3
970.142	0.3
970.563	0.3
970.985	0.3
971.407	0.3
971.828	0.3
972.25	0.3
972.671	0.3
973.093	0.3
973.514	0.3
973.936	0.3
974.357	0.3
974.778	0.3
975.2	0.3
975.621	0.3
976.042	0.3
976.464	0.3
976.885	0.3
977.306	0.3
977.727	0.3
978.148	0.3
978.57	0.3
978.991	0.3
979.412	0.3
979.833	0.3
980.254	0.3
980.675	0.3
981.096	0.3
981.517	0.3
981.937	0.3
982.358	0.3
982.779	0.3
983.2	0.3
983.621	0.3
984.042	0.3
984.462	0.3
984.883	0.3
985.304	0.3
985.724	0.3
986.145	0.3
986.565	0.3
986.986	0.3
987.407	0.3
987.827	0.3
988.248	0.3
988.668	0.3
989.088	0.3
989.509	0.3
989.929	0.3
990.35	0.3
990.77	0.3
991.19	0.3
991.61	0.3
992.031	0.29
992.451	0.29
992.871	0.29
993.291	0.29
993.711	0.29
994.131	0.29
994.551	0.29
994.971	0.29
995.391	0.29
995.811	0.29
996.231	0.28
996.651	0.28
997.071	0.28
997.491	0.28
997.911	0.28
998.331	0.28
998.75	0.28
999.17	0.28
999.59	0.28
1000.009	0.28
1000.429	0.28
1000.849	0.28
1001.268	0.28
1001.688	0.28
1002.107	0.28
1002.527	0.28
1002.946	0.28
1003.366	0.28
1003.785	0.27
1004.205	0.27
1004.624	0.27
1005.044	0.27
1005.463	0.27
1005.882	0.27
1006.301	0.27
1006.721	0.27
1007.14	0.27
1007.559	0.27
1007.978	0.27
1008.397	0.27
1008.816	0.27
1009.235	0.27
1009.655	0.27
1010.074	0.27
1010.492	0.27
1010.911	0.27
1011.33	0.27
1011.749	0.27
1012.168	0.27
1012.587	0.27
1013.006	0.27
1013.425	0.27
1013.843	0.27
1014.262	0.27
1014.681	0.27
1015.099	0.27
1015.518	0.27
1015.937	0.28
1016.355	0.28
1016.774	0.28
1017.192	0.28
1017.611	0.28
1018.029	0.28
1018.448	0.28
1018.866	0.28
1019.285	0.28
1019.703	0.28
1020.121	0.28
1020.54	0.28
1020.958	0.28
1021.376	0.28
1021.794	0.28
1022.213	0.28
1022.631	0.28
1023.049	0.28
1023.467	0.28
1023.885	0.28
1024.303	0.28
1024.721	0.28
1025.139	0.28
1025.557	0.28
1025.975	0.28
1026.393	0.28
1026.811	0.28
1027.229	0.28
1027.647	0.28
1028.065	0.28
1028.482	0.28
1028.9	0.28
1029.318	0.29
1029.735	0.29
1030.153	0.29
1030.571	0.29
1030.988	0.29
1031.406	0.29
1031.823	0.29
1032.241	0.29
1032.659	0.29
1033.076	0.29
1033.493	0.29
1033.911	0.3
1034.328	0.3
1034.746	0.3
1035.163	0.3
1035.58	0.3
1035.997	0.3
1036.415	0.31
1036.832	0.31
1037.249	0.31
1037.666	0.31
1038.083	0.32
1038.501	0.32
1038.918	0.32
1039.335	0.32
1039.752	0.32
1040.169	0.32
1040.586	0.33
1041.003	0.33
1041.419	0.33
1041.836	0.33
1042.253	0.33
1042.67	0.33
1043.087	0.33
1043.504	0.34
1043.92	0.34
1044.337	0.34
1044.754	0.34
1045.17	0.35
1045.587	0.35
1046.004	0.35
1046.42	0.35
1046.837	0.36
1047.253	0.36
1047.67	0.36
1048.086	0.36
1048.503	0.36
1048.919	0.36
1049.335	0.36
1049.752	0.36
1050.168	0.37
1050.584	0.37
1051.001	0.37
1051.417	0.38
1051.833	0.38
1052.249	0.38
1052.665	0.39
1053.081	0.39
1053.497	0.39
1053.914	0.4
1054.33	0.4
1054.746	0.4
1055.162	0.41
1055.578	0.41
1055.993	0.41
1056.409	0.41
1056.825	0.42
1057.241	0.42
1057.657	0.42
1058.073	0.43
1058.488	0.43
1058.904	0.44
1059.32	0.44
1059.736	0.45
1060.151	0.45
1060.567	0.46
1060.982	0.46
1061.398	0.47
1061.813	0.47
1062.229	0.47
1062.644	0.48
1063.06	0.48
1063.475	0.48
1063.891	0.49
1064.306	0.49
1064.721	0.5
1065.137	0.5
1065.552	0.51
1065.967	0.51
1066.382	0.52
1066.798	0.53
1067.213	0.53
1067.628	0.54
1068.043	0.55
1068.458	0.55
1068.873	0.56
1069.288	0.56
1069.703	0.57
1070.118	0.58
1070.533	0.59
1070.948	0.6
1071.363	0.61
1071.778	0.62
1072.193	0.63
1072.607	0.64
1073.022	0.66
1073.437	0.67
1073.852	0.69
1074.266	0.7
1074.681	0.72
1075.096	0.73
1075.51	0.75
1075.925	0.77
1076.339	0.79
1076.754	0.82
1077.168	0.85
1077.583	0.88
1077.997	0.91
1078.412	0.94
1078.826	0.98
1079.24	1.02
1079.655	1.06
1080.069	1.1
1080.483	1.14
1080.897	1.18
1081.312	1.23
1081.726	1.3
1082.14	1.39
1082.554	1.51
1082.968	1.71
1083.382	2.14
1083.796	-0
1084.21	-0
1084.624	-0
1085.038	-0
1085.452	-0
1085.866	-0
1086.28	-0
1086.694	-0
1087.108	-0
1087.521	-0
1087.935	-0
1088.349	-0
1088.763	-0
1089.176	-0
1089.59	-0
1090.004	-0
1090.417	-0
1090.831	-0
1091.244	-0
1091.658	-0
1092.071	-0
1092.485	-0
1092.898	-0
1093.312	-0
1093.725	-0
1094.138	-0
1094.552	-0
1094.965	-0
1095.378	-0
1095.791	-0
1096.205	-0
1096.618	-0
1097.031	-0
1097.444	-0
1097.857	-0
1098.27	-0
1098.683	-0
1099.096	-0
1099.509	-0
1099.922	-0
1100.335	-0
1100.748	-0
1101.161	-0
1101.574	-0
1101.986	-0
1102.399	-0
1102.812	-0
1103.225	-0
1103.637	-0
1104.05	-0
1104.463	-0
1104.875	-0
1105.288	-0
1105.7	-0
1106.113	-0
1106.525	-0
1106.938	-0
1107.35	-0
1107.763	-0
1108.175	-0
1108.588	-0
1109	-0
1109.412	-0
1109.824	-0
1110.237	-0
1110.649	-0
1111.061	-0
