Data from 2024-02-06-100ns-20nr-25nacl-100h2o-7bp2-1_5a808-40to10hyt-0_5cpm_Absorbance__55__00182.txt Node

Date: Tue Feb 06 12:35:21 CET 2024
User: Laser008
Spectrometer: MAYP115816
Trigger mode: 0
Integration Time (sec): 2.000000E-1
Scans to average: 10
Electric dark correction enabled: true
Nonlinearity correction enabled: true
Boxcar width: 5
XAxis mode: Wavelengths
Number of Pixels in Spectrum: 2068
>>>>>Begin Spectral Data<<<<<
198.914	-0.33
199.384	-0.29
199.855	-0.23
200.325	-0.19
200.796	-0.16
201.266	-0.15
201.737	-0.14
202.207	-0.13
202.677	-0.12
203.147	-0.12
203.618	-0.11
204.088	-0.1
204.558	-0.09
205.028	-0.08
205.498	-0.08
205.968	-0.08
206.439	-0.09
206.909	-0.08
207.379	-0.08
207.849	-0.08
208.319	-0.08
208.789	-0.08
209.258	-0.08
209.728	-0.08
210.198	-0.08
210.668	-0.09
211.138	-0.09
211.608	-0.09
212.077	-0.09
212.547	-0.09
213.017	-0.09
213.486	-0.09
213.956	-0.09
214.426	-0.09
214.895	-0.09
215.365	-0.09
215.834	-0.09
216.304	-0.09
216.773	-0.08
217.243	-0.08
217.712	-0.08
218.181	-0.08
218.651	-0.07
219.12	-0.07
219.589	-0.07
220.058	-0.07
220.528	-0.07
220.997	-0.07
221.466	-0.06
221.935	-0.07
222.404	-0.06
222.873	-0.06
223.342	-0.06
223.812	-0.06
224.281	-0.05
224.749	-0.04
225.218	-0.04
225.687	-0.03
226.156	-0.02
226.625	-0.01
227.094	-0.01
227.563	0.01
228.031	0.01
228.5	0.03
228.969	0.04
229.438	0.06
229.906	0.08
230.375	0.1
230.844	0.12
231.312	0.14
231.781	0.15
232.249	0.17
232.718	0.19
233.186	0.21
233.655	0.23
234.123	0.25
234.591	0.27
235.06	0.28
235.528	0.3
235.996	0.31
236.465	0.32
236.933	0.33
237.401	0.34
237.869	0.35
238.337	0.35
238.805	0.36
239.274	0.37
239.742	0.37
240.21	0.38
240.678	0.38
241.146	0.39
241.614	0.39
242.081	0.39
242.549	0.4
243.017	0.4
243.485	0.4
243.953	0.41
244.421	0.41
244.888	0.41
245.356	0.41
245.824	0.42
246.291	0.42
246.759	0.42
247.227	0.42
247.694	0.42
248.162	0.43
248.629	0.43
249.097	0.43
249.564	0.43
250.032	0.44
250.499	0.44
250.967	0.44
251.434	0.44
251.901	0.44
252.369	0.44
252.836	0.45
253.303	0.45
253.77	0.45
254.237	0.45
254.705	0.45
255.172	0.45
255.639	0.45
256.106	0.45
256.573	0.46
257.04	0.46
257.507	0.46
257.974	0.46
258.441	0.46
258.908	0.46
259.375	0.46
259.841	0.46
260.308	0.46
260.775	0.46
261.242	0.46
261.709	0.46
262.175	0.46
262.642	0.46
263.109	0.46
263.575	0.46
264.042	0.46
264.508	0.45
264.975	0.45
265.441	0.45
265.908	0.45
266.374	0.45
266.841	0.45
267.307	0.45
267.773	0.45
268.24	0.44
268.706	0.44
269.172	0.44
269.639	0.44
270.105	0.44
270.571	0.43
271.037	0.43
271.503	0.43
271.969	0.43
272.435	0.43
272.902	0.42
273.368	0.42
273.834	0.42
274.3	0.42
274.765	0.41
275.231	0.41
275.697	0.41
276.163	0.41
276.629	0.41
277.095	0.4
277.56	0.4
278.026	0.4
278.492	0.39
278.958	0.39
279.423	0.39
279.889	0.39
280.354	0.38
280.82	0.38
281.286	0.38
281.751	0.38
282.217	0.37
282.682	0.37
283.147	0.37
283.613	0.37
284.078	0.36
284.544	0.36
285.009	0.36
285.474	0.36
285.939	0.36
286.405	0.35
286.87	0.35
287.335	0.35
287.8	0.35
288.265	0.35
288.73	0.34
289.195	0.34
289.66	0.34
290.125	0.34
290.59	0.34
291.055	0.33
291.52	0.33
291.985	0.33
292.45	0.33
292.915	0.33
293.38	0.33
293.844	0.32
294.309	0.32
294.774	0.32
295.239	0.32
295.703	0.32
296.168	0.32
296.632	0.32
297.097	0.32
297.562	0.32
298.026	0.31
298.491	0.31
298.955	0.31
299.419	0.31
299.884	0.31
300.348	0.31
300.813	0.31
301.277	0.31
301.741	0.31
302.205	0.31
302.67	0.31
303.134	0.31
303.598	0.31
304.062	0.3
304.526	0.3
304.99	0.3
305.454	0.3
305.919	0.3
306.383	0.3
306.847	0.3
307.31	0.3
307.774	0.3
308.238	0.3
308.702	0.3
309.166	0.3
309.63	0.3
310.094	0.3
310.557	0.29
311.021	0.29
311.485	0.29
311.948	0.29
312.412	0.29
312.876	0.29
313.339	0.29
313.803	0.29
314.266	0.29
314.73	0.29
315.193	0.29
315.657	0.29
316.12	0.29
316.584	0.29
317.047	0.29
317.51	0.28
317.973	0.28
318.437	0.28
318.9	0.28
319.363	0.28
319.826	0.28
320.29	0.28
320.753	0.28
321.216	0.28
321.679	0.28
322.142	0.28
322.605	0.28
323.068	0.28
323.531	0.28
323.994	0.28
324.457	0.28
324.92	0.27
325.382	0.27
325.845	0.27
326.308	0.27
326.771	0.27
327.233	0.27
327.696	0.27
328.159	0.27
328.622	0.27
329.084	0.27
329.547	0.27
330.009	0.27
330.472	0.27
330.934	0.27
331.397	0.27
331.859	0.27
332.322	0.27
332.784	0.27
333.246	0.26
333.709	0.26
334.171	0.26
334.633	0.26
335.096	0.26
335.558	0.26
336.02	0.26
336.482	0.26
336.944	0.26
337.406	0.26
337.868	0.26
338.331	0.26
338.793	0.26
339.255	0.26
339.717	0.26
340.178	0.26
340.64	0.26
341.102	0.26
341.564	0.26
342.026	0.26
342.488	0.25
342.949	0.25
343.411	0.25
343.873	0.25
344.335	0.25
344.796	0.25
345.258	0.25
345.719	0.25
346.181	0.25
346.643	0.25
347.104	0.25
347.566	0.25
348.027	0.25
348.488	0.25
348.95	0.25
349.411	0.25
349.873	0.25
350.334	0.25
350.795	0.25
351.256	0.25
351.718	0.25
352.179	0.25
352.64	0.25
353.101	0.25
353.562	0.25
354.023	0.25
354.484	0.25
354.945	0.25
355.406	0.25
355.867	0.25
356.328	0.25
356.789	0.25
357.25	0.25
357.711	0.25
358.172	0.25
358.633	0.25
359.093	0.25
359.554	0.25
360.015	0.25
360.476	0.25
360.936	0.25
361.397	0.25
361.858	0.25
362.318	0.25
362.779	0.25
363.239	0.25
363.7	0.25
364.16	0.25
364.621	0.25
365.081	0.25
365.541	0.25
366.002	0.24
366.462	0.24
366.922	0.24
367.383	0.24
367.843	0.24
368.303	0.24
368.763	0.24
369.223	0.24
369.684	0.24
370.144	0.24
370.604	0.24
371.064	0.24
371.524	0.24
371.984	0.24
372.444	0.24
372.904	0.24
373.363	0.24
373.823	0.24
374.283	0.24
374.743	0.24
375.203	0.24
375.663	0.24
376.122	0.24
376.582	0.24
377.042	0.24
377.501	0.24
377.961	0.24
378.42	0.24
378.88	0.24
379.34	0.24
379.799	0.24
380.259	0.24
380.718	0.24
381.177	0.24
381.637	0.24
382.096	0.24
382.555	0.24
383.015	0.24
383.474	0.24
383.933	0.24
384.393	0.24
384.852	0.24
385.311	0.24
385.77	0.24
386.229	0.24
386.688	0.24
387.147	0.24
387.606	0.24
388.065	0.24
388.524	0.23
388.983	0.23
389.442	0.23
389.901	0.23
390.36	0.23
390.819	0.23
391.277	0.23
391.736	0.23
392.195	0.23
392.654	0.23
393.112	0.23
393.571	0.23
394.03	0.23
394.488	0.23
394.947	0.23
395.405	0.23
395.864	0.23
396.322	0.23
396.781	0.23
397.239	0.23
397.698	0.23
398.156	0.23
398.614	0.23
399.073	0.23
399.531	0.23
399.989	0.23
400.447	0.23
400.905	0.23
401.364	0.23
401.822	0.23
402.28	0.23
402.738	0.23
403.196	0.23
403.654	0.23
404.112	0.23
404.57	0.23
405.028	0.23
405.486	0.22
405.944	0.22
406.402	0.22
406.859	0.22
407.317	0.22
407.775	0.22
408.233	0.22
408.691	0.22
409.148	0.22
409.606	0.22
410.064	0.22
410.521	0.22
410.979	0.22
411.436	0.22
411.894	0.22
412.351	0.22
412.809	0.22
413.266	0.22
413.724	0.22
414.181	0.22
414.638	0.22
415.096	0.22
415.553	0.22
416.01	0.22
416.467	0.22
416.925	0.22
417.382	0.22
417.839	0.22
418.296	0.22
418.753	0.22
419.21	0.22
419.667	0.22
420.124	0.22
420.581	0.22
421.038	0.22
421.495	0.22
421.952	0.22
422.409	0.22
422.866	0.22
423.322	0.22
423.779	0.22
424.236	0.22
424.693	0.22
425.149	0.22
425.606	0.21
426.063	0.21
426.519	0.21
426.976	0.21
427.433	0.21
427.889	0.21
428.346	0.21
428.802	0.21
429.258	0.21
429.715	0.21
430.171	0.21
430.628	0.21
431.084	0.21
431.54	0.21
431.997	0.21
432.453	0.21
432.909	0.21
433.365	0.21
433.821	0.21
434.277	0.21
434.734	0.21
435.19	0.21
435.646	0.21
436.102	0.21
436.558	0.21
437.014	0.21
437.47	0.21
437.925	0.21
438.381	0.21
438.837	0.21
439.293	0.21
439.749	0.21
440.205	0.21
440.66	0.21
441.116	0.21
441.572	0.21
442.027	0.21
442.483	0.21
442.939	0.21
443.394	0.21
443.85	0.21
444.305	0.21
444.761	0.21
445.216	0.21
445.672	0.21
446.127	0.21
446.582	0.21
447.038	0.21
447.493	0.21
447.948	0.21
448.403	0.21
448.859	0.21
449.314	0.21
449.769	0.21
450.224	0.21
450.679	0.21
451.134	0.21
451.589	0.2
452.044	0.2
452.499	0.2
452.954	0.2
453.409	0.2
453.864	0.2
454.319	0.2
454.774	0.2
455.229	0.2
455.684	0.2
456.138	0.2
456.593	0.2
457.048	0.2
457.503	0.2
457.957	0.2
458.412	0.2
458.866	0.2
459.321	0.2
459.776	0.2
460.23	0.2
460.685	0.2
461.139	0.2
461.593	0.2
462.048	0.2
462.502	0.2
462.957	0.2
463.411	0.2
463.865	0.2
464.319	0.2
464.774	0.2
465.228	0.2
465.682	0.2
466.136	0.2
466.59	0.2
467.044	0.2
467.499	0.2
467.953	0.2
468.407	0.2
468.861	0.2
469.315	0.2
469.768	0.2
470.222	0.2
470.676	0.21
471.13	0.21
471.584	0.21
472.038	0.21
472.491	0.21
472.945	0.21
473.399	0.21
473.852	0.21
474.306	0.21
474.76	0.21
475.213	0.21
475.667	0.21
476.12	0.21
476.574	0.21
477.027	0.21
477.481	0.21
477.934	0.21
478.388	0.21
478.841	0.21
479.294	0.21
479.748	0.21
480.201	0.21
480.654	0.21
481.107	0.21
481.561	0.21
482.014	0.22
482.467	0.22
482.92	0.22
483.373	0.22
483.826	0.22
484.279	0.22
484.732	0.22
485.185	0.22
485.638	0.22
486.091	0.22
486.544	0.22
486.997	0.22
487.449	0.22
487.902	0.22
488.355	0.23
488.808	0.23
489.26	0.23
489.713	0.23
490.166	0.23
490.618	0.23
491.071	0.23
491.523	0.23
491.976	0.23
492.429	0.24
492.881	0.24
493.333	0.24
493.786	0.24
494.238	0.24
494.691	0.24
495.143	0.24
495.595	0.25
496.048	0.25
496.5	0.25
496.952	0.25
497.404	0.25
497.856	0.25
498.309	0.25
498.761	0.26
499.213	0.26
499.665	0.26
500.117	0.26
500.569	0.26
501.021	0.27
501.473	0.27
501.925	0.27
502.377	0.27
502.828	0.27
503.28	0.28
503.732	0.28
504.184	0.28
504.636	0.28
505.087	0.28
505.539	0.28
505.991	0.28
506.442	0.29
506.894	0.29
507.345	0.29
507.797	0.29
508.249	0.29
508.7	0.29
509.151	0.3
509.603	0.3
510.054	0.3
510.506	0.3
510.957	0.3
511.408	0.3
511.86	0.31
512.311	0.31
512.762	0.31
513.213	0.31
513.665	0.31
514.116	0.31
514.567	0.31
515.018	0.31
515.469	0.32
515.92	0.32
516.371	0.32
516.822	0.32
517.273	0.32
517.724	0.32
518.175	0.32
518.626	0.33
519.076	0.33
519.527	0.33
519.978	0.33
520.429	0.33
520.88	0.33
521.33	0.33
521.781	0.33
522.232	0.33
522.682	0.33
523.133	0.33
523.583	0.33
524.034	0.33
524.484	0.34
524.935	0.34
525.385	0.34
525.836	0.34
526.286	0.34
526.736	0.34
527.187	0.34
527.637	0.34
528.087	0.34
528.538	0.34
528.988	0.34
529.438	0.34
529.888	0.34
530.338	0.34
530.788	0.34
531.238	0.34
531.688	0.34
532.139	0.34
532.589	0.34
533.038	0.34
533.488	0.34
533.938	0.34
534.388	0.34
534.838	0.34
535.288	0.34
535.738	0.34
536.187	0.34
536.637	0.34
537.087	0.34
537.537	0.34
537.986	0.34
538.436	0.34
538.885	0.34
539.335	0.34
539.785	0.34
540.234	0.34
540.684	0.33
541.133	0.33
541.582	0.33
542.032	0.33
542.481	0.33
542.931	0.33
543.38	0.33
543.829	0.33
544.278	0.33
544.728	0.33
545.177	0.33
545.626	0.33
546.075	0.33
546.524	0.33
546.973	0.32
547.422	0.32
547.871	0.32
548.32	0.32
548.769	0.32
549.218	0.32
549.667	0.32
550.116	0.32
550.565	0.32
551.014	0.31
551.463	0.31
551.911	0.31
552.36	0.31
552.809	0.31
553.258	0.31
553.706	0.31
554.155	0.31
554.603	0.3
555.052	0.3
555.501	0.3
555.949	0.3
556.398	0.3
556.846	0.3
557.294	0.3
557.743	0.3
558.191	0.29
558.64	0.29
559.088	0.29
559.536	0.29
559.985	0.29
560.433	0.29
560.881	0.29
561.329	0.29
561.777	0.29
562.225	0.29
562.674	0.28
563.122	0.28
563.57	0.28
564.018	0.28
564.466	0.28
564.914	0.28
565.362	0.27
565.809	0.27
566.257	0.27
566.705	0.27
567.153	0.27
567.601	0.27
568.048	0.27
568.496	0.26
568.944	0.26
569.392	0.26
569.839	0.26
570.287	0.26
570.734	0.26
571.182	0.26
571.63	0.25
572.077	0.25
572.525	0.25
572.972	0.25
573.419	0.25
573.867	0.25
574.314	0.25
574.761	0.24
575.209	0.24
575.656	0.24
576.103	0.24
576.551	0.24
576.998	0.24
577.445	0.24
577.892	0.24
578.339	0.23
578.786	0.23
579.233	0.23
579.68	0.23
580.127	0.23
580.574	0.23
581.021	0.22
581.468	0.22
581.915	0.22
582.362	0.22
582.809	0.22
583.255	0.22
583.702	0.22
584.149	0.21
584.596	0.21
585.042	0.21
585.489	0.21
585.936	0.21
586.382	0.21
586.829	0.2
587.275	0.2
587.722	0.2
588.168	0.2
588.615	0.2
589.061	0.2
589.508	0.2
589.954	0.2
590.4	0.2
590.847	0.19
591.293	0.19
591.739	0.19
592.185	0.19
592.632	0.19
593.078	0.19
593.524	0.19
593.97	0.19
594.416	0.18
594.862	0.18
595.308	0.18
595.754	0.18
596.2	0.18
596.646	0.18
597.092	0.18
597.538	0.18
597.984	0.17
598.43	0.17
598.876	0.17
599.321	0.17
599.767	0.17
600.213	0.17
600.659	0.17
601.104	0.17
601.55	0.17
601.995	0.17
602.441	0.17
602.887	0.16
603.332	0.16
603.778	0.16
604.223	0.16
604.668	0.16
605.114	0.16
605.559	0.16
606.005	0.16
606.45	0.16
606.895	0.16
607.341	0.16
607.786	0.15
608.231	0.15
608.676	0.15
609.121	0.15
609.566	0.15
610.012	0.15
610.457	0.15
610.902	0.15
611.347	0.15
611.792	0.15
612.237	0.15
612.682	0.15
613.127	0.15
613.571	0.15
614.016	0.15
614.461	0.15
614.906	0.15
615.351	0.15
615.795	0.15
616.24	0.14
616.685	0.14
617.129	0.14
617.574	0.14
618.019	0.14
618.463	0.14
618.908	0.14
619.352	0.14
619.797	0.14
620.241	0.14
620.686	0.14
621.13	0.14
621.574	0.14
622.019	0.14
622.463	0.14
622.907	0.14
623.352	0.14
623.796	0.14
624.24	0.14
624.684	0.14
625.128	0.14
625.572	0.14
626.016	0.14
626.461	0.14
626.905	0.14
627.349	0.14
627.793	0.14
628.236	0.14
628.68	0.14
629.124	0.14
629.568	0.14
630.012	0.14
630.456	0.14
630.9	0.14
631.343	0.14
631.787	0.15
632.231	0.15
632.674	0.15
633.118	0.15
633.562	0.15
634.005	0.15
634.449	0.15
634.892	0.15
635.336	0.15
635.779	0.15
636.223	0.15
636.666	0.16
637.109	0.16
637.553	0.16
637.996	0.16
638.439	0.16
638.883	0.16
639.326	0.16
639.769	0.16
640.212	0.16
640.655	0.16
641.099	0.16
641.542	0.17
641.985	0.17
642.428	0.17
642.871	0.17
643.314	0.17
643.757	0.17
644.2	0.18
644.643	0.18
645.085	0.18
645.528	0.18
645.971	0.18
646.414	0.19
646.857	0.19
647.299	0.19
647.742	0.19
648.185	0.19
648.627	0.2
649.07	0.2
649.513	0.2
649.955	0.2
650.398	0.2
650.84	0.21
651.283	0.21
651.725	0.21
652.168	0.21
652.61	0.22
653.052	0.22
653.495	0.22
653.937	0.17
654.379	0.14
654.821	0.14
655.264	0.15
655.706	0.15
656.148	0.15
656.59	0.15
657.032	0.15
657.474	0.15
657.916	0.15
658.358	0.15
658.8	0.19
659.242	0.25
659.684	0.26
660.126	0.26
660.568	0.26
661.01	0.26
661.452	0.27
661.894	0.27
662.335	0.27
662.777	0.28
663.219	0.28
663.661	0.28
664.102	0.28
664.544	0.29
664.985	0.29
665.427	0.29
665.869	0.29
666.31	0.3
666.752	0.3
667.193	0.3
667.634	0.3
668.076	0.31
668.517	0.31
668.959	0.31
669.4	0.31
669.841	0.32
670.282	0.32
670.724	0.32
671.165	0.32
671.606	0.32
672.047	0.33
672.488	0.33
672.929	0.33
673.37	0.33
673.811	0.33
674.252	0.33
674.693	0.34
675.134	0.34
675.575	0.34
676.016	0.34
676.457	0.34
676.898	0.35
677.339	0.35
677.78	0.35
678.22	0.35
678.661	0.35
679.102	0.35
679.542	0.35
679.983	0.35
680.424	0.35
680.864	0.36
681.305	0.36
681.745	0.36
682.186	0.36
682.626	0.36
683.067	0.36
683.507	0.36
683.948	0.36
684.388	0.36
684.828	0.36
685.269	0.36
685.709	0.36
686.149	0.36
686.589	0.36
687.029	0.36
687.47	0.36
687.91	0.36
688.35	0.36
688.79	0.36
689.23	0.36
689.67	0.36
690.11	0.36
690.55	0.36
690.99	0.36
691.43	0.36
691.87	0.36
692.31	0.36
692.749	0.36
693.189	0.36
693.629	0.36
694.069	0.36
694.508	0.36
694.948	0.36
695.388	0.36
695.827	0.35
696.267	0.35
696.706	0.35
697.146	0.35
697.586	0.35
698.025	0.35
698.464	0.35
698.904	0.35
699.343	0.35
699.783	0.35
700.222	0.34
700.661	0.34
701.101	0.34
701.54	0.34
701.979	0.34
702.418	0.34
702.857	0.34
703.297	0.34
703.736	0.33
704.175	0.33
704.614	0.33
705.053	0.33
705.492	0.33
705.931	0.32
706.37	0.32
706.809	0.32
707.248	0.32
707.687	0.32
708.125	0.32
708.564	0.31
709.003	0.31
709.442	0.31
709.88	0.31
710.319	0.31
710.758	0.3
711.196	0.3
711.635	0.3
712.074	0.3
712.512	0.3
712.951	0.29
713.389	0.29
713.828	0.29
714.266	0.29
714.705	0.29
715.143	0.29
715.581	0.29
716.02	0.28
716.458	0.28
716.896	0.28
717.334	0.28
717.773	0.28
718.211	0.28
718.649	0.27
719.087	0.27
719.525	0.27
719.963	0.27
720.401	0.27
720.839	0.26
721.277	0.26
721.715	0.26
722.153	0.26
722.591	0.26
723.029	0.26
723.467	0.25
723.905	0.25
724.342	0.25
724.78	0.25
725.218	0.25
725.656	0.25
726.093	0.25
726.531	0.24
726.969	0.24
727.406	0.24
727.844	0.24
728.281	0.24
728.719	0.24
729.156	0.23
729.594	0.23
730.031	0.23
730.469	0.23
730.906	0.23
731.343	0.23
731.781	0.22
732.218	0.22
732.655	0.22
733.092	0.22
733.53	0.22
733.967	0.22
734.404	0.21
734.841	0.21
735.278	0.21
735.715	0.21
736.152	0.21
736.589	0.2
737.026	0.2
737.463	0.2
737.9	0.2
738.337	0.2
738.774	0.19
739.211	0.19
739.647	0.19
740.084	0.19
740.521	0.19
740.958	0.19
741.394	0.19
741.831	0.18
742.268	0.18
742.704	0.18
743.141	0.18
743.577	0.18
744.014	0.17
744.45	0.17
744.887	0.17
745.323	0.17
745.76	0.17
746.196	0.17
746.632	0.16
747.069	0.16
747.505	0.16
747.941	0.16
748.378	0.16
748.814	0.16
749.25	0.16
749.686	0.16
750.122	0.16
750.558	0.16
750.994	0.15
751.43	0.15
751.866	0.15
752.302	0.15
752.738	0.15
753.174	0.15
753.61	0.14
754.046	0.14
754.482	0.14
754.918	0.14
755.354	0.14
755.789	0.14
756.225	0.13
756.661	0.13
757.096	0.13
757.532	0.13
757.968	0.13
758.403	0.13
758.839	0.13
759.274	0.13
759.71	0.13
760.145	0.12
760.581	0.12
761.016	0.12
761.452	0.12
761.887	0.12
762.322	0.12
762.758	0.12
763.193	0.12
763.628	0.11
764.063	0.11
764.499	0.11
764.934	0.11
765.369	0.11
765.804	0.1
766.239	0.1
766.674	0.1
767.109	0.1
767.544	0.09
767.979	0.09
768.414	0.09
768.849	0.09
769.284	0.08
769.719	0.08
770.154	0.08
770.588	0.08
771.023	0.07
771.458	0.07
771.893	0.06
772.327	0.06
772.762	0.06
773.197	0.06
773.631	0.05
774.066	0.05
774.5	0.05
774.935	0.04
775.369	0.04
775.804	0.04
776.238	0.03
776.673	0.03
777.107	0.03
777.541	0.02
777.976	0.02
778.41	0.02
778.844	0.01
779.279	0.01
779.713	0.01
780.147	0
780.581	-0
781.015	-0
781.449	-0.01
781.883	-0.01
782.317	-0.02
782.751	-0.02
783.185	-0.03
783.619	-0.03
784.053	-0.04
784.487	-0.04
784.921	-0.05
785.355	-0.05
785.789	-0.06
786.223	-0.06
786.656	-0.06
787.09	-0.07
787.524	-0.07
787.957	-0.08
788.391	-0.09
788.825	-0.09
789.258	-0.1
789.692	-0.1
790.125	-0.11
790.559	-0.11
790.992	-0.12
791.426	-0.12
791.859	-0.12
792.293	-0.11
792.726	-0.11
793.159	-0.1
793.593	-0.1
794.026	-0.1
794.459	-0.11
794.892	-0.11
795.326	-0.11
795.759	-0.11
796.192	-0.11
796.625	-0.12
797.058	-0.13
797.491	-0.14
797.924	-0.15
798.357	-0.15
798.79	-0.15
799.223	-0.15
799.656	-0.15
800.089	-0.15
800.522	-0.15
800.955	-0.16
801.387	-0.15
801.82	-0.16
802.253	-0.16
802.686	-0.16
803.118	-0.16
803.551	-0.16
803.984	-0.15
804.416	-0.15
804.849	-0.14
805.281	-0.14
805.714	-0.14
806.146	-0.14
806.579	-0.13
807.011	-0.13
807.444	-0.13
807.876	-0.13
808.308	-0.13
808.741	-0.14
809.173	-0.14
809.605	-0.15
810.037	-0.15
810.47	-0.15
810.902	-0.16
811.334	-0.16
811.766	-0.16
812.198	-0.15
812.63	-0.15
813.062	-0.15
813.494	-0.15
813.926	-0.15
814.358	-0.14
814.79	-0.13
815.222	-0.12
815.654	-0.12
816.086	-0.11
816.518	-0.1
816.949	-0.1
817.381	-0.09
817.813	-0.08
818.245	-0.07
818.676	-0.06
819.108	-0.05
819.54	-0.05
819.971	-0.04
820.403	-0.04
820.834	-0.03
821.266	-0.03
821.697	-0.02
822.129	-0.02
822.56	-0.01
822.991	-0.01
823.423	-0.01
823.854	-0.01
824.286	-0
824.717	-0
825.148	0
825.579	0
826.01	0.01
826.442	0.01
826.873	0.01
827.304	0.01
827.735	0.01
828.166	0.01
828.597	0.01
829.028	0.01
829.459	0.02
829.89	0.02
830.321	0.02
830.752	0.02
831.183	0.02
831.613	0.02
832.044	0.02
832.475	0.02
832.906	0.02
833.336	0.02
833.767	0.02
834.198	0.02
834.628	0.02
835.059	0.03
835.49	0.03
835.92	0.03
836.351	0.03
836.781	0.03
837.212	0.03
837.642	0.03
838.072	0.03
838.503	0.03
838.933	0.03
839.364	0.03
839.794	0.03
840.224	0.03
840.654	0.03
841.085	0.03
841.515	0.03
841.945	0.03
842.375	0.03
842.805	0.03
843.235	0.03
843.665	0.03
844.095	0.03
844.525	0.03
844.955	0.03
845.385	0.03
845.815	0.03
846.245	0.03
846.675	0.03
847.105	0.03
847.534	0.03
847.964	0.03
848.394	0.03
848.824	0.03
849.253	0.03
849.683	0.03
850.112	0.03
850.542	0.03
850.972	0.03
851.401	0.03
851.831	0.03
852.26	0.03
852.69	0.03
853.119	0.03
853.548	0.03
853.978	0.03
854.407	0.03
854.836	0.03
855.266	0.03
855.695	0.03
856.124	0.03
856.553	0.03
856.983	0.03
857.412	0.03
857.841	0.03
858.27	0.03
858.699	0.03
859.128	0.03
859.557	0.03
859.986	0.03
860.415	0.03
860.844	0.03
861.273	0.03
861.702	0.03
862.13	0.03
862.559	0.03
862.988	0.03
863.417	0.03
863.845	0.03
864.274	0.03
864.703	0.03
865.131	0.03
865.56	0.03
865.989	0.03
866.417	0.03
866.846	0.03
867.274	0.03
867.703	0.03
868.131	0.02
868.559	0.02
868.988	0.02
869.416	0.02
869.844	0.02
870.273	0.02
870.701	0.02
871.129	0.02
871.557	0.02
871.986	0.02
872.414	0.02
872.842	0.02
873.27	0.02
873.698	0.02
874.126	0.02
874.554	0.02
874.982	0.02
875.41	0.02
875.838	0.02
876.266	0.02
876.694	0.02
877.122	0.02
877.549	0.01
877.977	0.01
878.405	0.01
878.833	0.01
879.26	0.01
879.688	0.01
880.116	0.01
880.543	0.01
880.971	0.01
881.399	0.01
881.826	0.01
882.254	0.01
882.681	0.01
883.109	0.01
883.536	0.01
883.963	0.01
884.391	0.02
884.818	0.02
885.245	0.02
885.673	0.02
886.1	0.02
886.527	0.02
886.954	0.02
887.381	0.02
887.809	0.02
888.236	0.02
888.663	0.02
889.09	0.02
889.517	0.02
889.944	0.02
890.371	0.02
890.798	0.02
891.225	0.02
891.652	0.02
892.078	0.02
892.505	0.02
892.932	0.02
893.359	0.02
893.786	0.01
894.212	0.01
894.639	0.01
895.066	0.01
895.492	0.01
895.919	0.01
896.346	0.01
896.772	0.01
897.199	0.01
897.625	0.01
898.052	0.01
898.478	0
898.904	0
899.331	0
899.757	0
900.183	0
900.61	0
901.036	0
901.462	0
901.888	0
902.315	0
902.741	0
903.167	0
903.593	0
904.019	0.01
904.445	0.01
904.871	0.01
905.297	0.01
905.723	0.01
906.149	0.01
906.575	0.01
907.001	0.01
907.427	0.01
907.852	0.01
908.278	0.01
908.704	0.01
909.13	0.01
909.555	0.01
909.981	0.01
910.407	0.01
910.832	0.01
911.258	0.01
911.684	0.01
912.109	0.01
912.535	0.01
912.96	0.01
913.386	0.01
913.811	0.01
914.236	0.01
914.662	0.01
915.087	0.01
915.512	0.01
915.938	0.01
916.363	0.01
916.788	0.01
917.213	0.01
917.639	0.01
918.064	0.01
918.489	0.01
918.914	0.01
919.339	0.01
919.764	0.01
920.189	0.01
920.614	0.01
921.039	0.01
921.464	0.01
921.889	0.01
922.314	0.01
922.738	0.01
923.163	0.01
923.588	0.01
924.013	0.01
924.437	0.01
924.862	0.01
925.287	0.01
925.711	0.01
926.136	0.01
926.561	0.01
926.985	0.01
927.41	0.01
927.834	0.01
928.259	0.01
928.683	0.01
929.108	0.01
929.532	0.01
929.956	0.01
930.381	0.01
930.805	0.01
931.229	0.01
931.653	0.01
932.078	0.01
932.502	0.01
932.926	0.01
933.35	0
933.774	0
934.198	0
934.622	0
935.046	0
935.47	0
935.894	0
936.318	0
936.742	0
937.166	0
937.59	0
938.014	0
938.437	0
938.861	0
939.285	0
939.709	0
940.132	0
940.556	-0
940.98	-0
941.403	-0
941.827	-0
942.25	-0
942.674	-0
943.097	-0
943.521	-0.01
943.944	-0.01
944.368	-0.01
944.791	-0.01
945.214	-0.01
945.638	-0.01
946.061	-0.01
946.484	-0.01
946.907	-0.01
947.331	-0.01
947.754	-0.01
948.177	-0.01
948.6	-0.01
949.023	-0.01
949.446	-0.01
949.869	-0.01
950.292	-0.01
950.715	-0.01
951.138	-0.01
951.561	-0.01
951.984	-0.01
952.407	-0.01
952.83	-0.01
953.252	-0.01
953.675	-0.01
954.098	-0.01
954.521	-0.01
954.943	-0.01
955.366	-0.01
955.789	-0.01
956.211	-0.01
956.634	-0.01
957.056	-0.01
957.479	-0
957.902	-0
958.324	-0
958.746	-0
959.169	0
959.591	0
960.014	0
960.436	0
960.858	0
961.281	0.01
961.703	0.01
962.125	0.01
962.547	0.01
962.969	0.01
963.391	0.01
963.814	0.01
964.236	0.01
964.658	0.01
965.08	0.01
965.502	0.01
965.924	0.01
966.346	0.01
966.768	0.01
967.189	0.01
967.611	0.01
968.033	0.01
968.455	0
968.877	0
969.298	0
969.72	0
970.142	0
970.563	-0
970.985	-0
971.407	-0
971.828	-0
972.25	-0
972.671	-0
973.093	-0
973.514	-0
973.936	-0
974.357	-0
974.778	-0
975.2	-0
975.621	-0
976.042	-0
976.464	-0
976.885	-0
977.306	-0
977.727	-0
978.148	-0
978.57	0
978.991	0
979.412	0
979.833	0
980.254	0
980.675	0
981.096	0.01
981.517	0.01
981.937	0
982.358	0
982.779	0
983.2	0
983.621	0
984.042	0
984.462	0
984.883	-0
985.304	-0
985.724	-0
986.145	-0
986.565	-0
986.986	-0
987.407	-0
987.827	-0
988.248	-0
988.668	-0
989.088	-0
989.509	-0
989.929	-0
990.35	-0.01
990.77	-0.01
991.19	-0.01
991.61	-0.01
992.031	-0.01
992.451	-0.01
992.871	-0.01
993.291	-0.01
993.711	-0.01
994.131	-0.01
994.551	-0.01
994.971	-0.01
995.391	-0.01
995.811	-0.01
996.231	-0.01
996.651	-0.01
997.071	-0.01
997.491	-0.01
997.911	-0.01
998.331	-0.01
998.75	-0.01
999.17	-0
999.59	-0
1000.009	-0
1000.429	-0
1000.849	-0
1001.268	-0
1001.688	-0
1002.107	-0
1002.527	-0
1002.946	-0
1003.366	-0
1003.785	-0
1004.205	-0
1004.624	-0
1005.044	-0
1005.463	-0
1005.882	-0
1006.301	-0
1006.721	-0.01
1007.14	-0.01
1007.559	-0.01
1007.978	-0.01
1008.397	-0.01
1008.816	-0.01
1009.235	-0.01
1009.655	-0.01
1010.074	-0.01
1010.492	-0.01
1010.911	-0.01
1011.33	-0.01
1011.749	-0.01
1012.168	-0.01
1012.587	-0.01
1013.006	-0.01
1013.425	-0.01
1013.843	-0.01
1014.262	-0.01
1014.681	-0.01
1015.099	-0.01
1015.518	-0.01
1015.937	-0.01
1016.355	-0.01
1016.774	-0.01
1017.192	-0.01
1017.611	-0.01
1018.029	-0.01
1018.448	-0.01
1018.866	-0.01
1019.285	-0.01
1019.703	-0.01
1020.121	-0.01
1020.54	-0.01
1020.958	-0.01
1021.376	-0.01
1021.794	-0.01
1022.213	-0.01
1022.631	-0.01
1023.049	-0.01
1023.467	-0.01
1023.885	-0.01
1024.303	-0.01
1024.721	-0.01
1025.139	-0.01
1025.557	-0.01
1025.975	-0.01
1026.393	-0.01
1026.811	-0.01
1027.229	-0.01
1027.647	-0.01
1028.065	-0.01
1028.482	-0.01
1028.9	-0.01
1029.318	-0.01
1029.735	-0.01
1030.153	-0.01
1030.571	-0.01
1030.988	-0.01
1031.406	-0.01
1031.823	-0.01
1032.241	-0.01
1032.659	-0.01
1033.076	-0.01
1033.493	-0.01
1033.911	-0.01
1034.328	-0.01
1034.746	-0.01
1035.163	-0.01
1035.58	-0.01
1035.997	-0.01
1036.415	-0.01
1036.832	-0.01
1037.249	-0.01
1037.666	-0.01
1038.083	-0.01
1038.501	-0.01
1038.918	-0.01
1039.335	-0.01
1039.752	-0.01
1040.169	-0.01
1040.586	-0.01
1041.003	-0.01
1041.419	-0.01
1041.836	-0.01
1042.253	-0.01
1042.67	-0.01
1043.087	-0.01
1043.504	-0.01
1043.92	-0.01
1044.337	-0.01
1044.754	-0.01
1045.17	-0.01
1045.587	-0.01
1046.004	-0.01
1046.42	-0.01
1046.837	-0.01
1047.253	-0.01
1047.67	-0.01
1048.086	-0.01
1048.503	-0.01
1048.919	-0.01
1049.335	-0.01
1049.752	-0.01
1050.168	-0.01
1050.584	-0.01
1051.001	-0.01
1051.417	-0.01
1051.833	-0.01
1052.249	-0.01
1052.665	-0.01
1053.081	-0.01
1053.497	-0.01
1053.914	-0.01
1054.33	-0.01
1054.746	-0.01
1055.162	-0.01
1055.578	-0.01
1055.993	-0.01
1056.409	-0.02
1056.825	-0.02
1057.241	-0.02
1057.657	-0.02
1058.073	-0.02
1058.488	-0.02
1058.904	-0.02
1059.32	-0.02
1059.736	-0.02
1060.151	-0.02
1060.567	-0.02
1060.982	-0.02
1061.398	-0.02
1061.813	-0.02
1062.229	-0.02
1062.644	-0.02
1063.06	-0.02
1063.475	-0.02
1063.891	-0.02
1064.306	-0.02
1064.721	-0.02
1065.137	-0.02
1065.552	-0.02
1065.967	-0.02
1066.382	-0.02
1066.798	-0.02
1067.213	-0.02
1067.628	-0.02
1068.043	-0.02
1068.458	-0.02
1068.873	-0.02
1069.288	-0.02
1069.703	-0.02
1070.118	-0.02
1070.533	-0.02
1070.948	-0.02
1071.363	-0.02
1071.778	-0.02
1072.193	-0.02
1072.607	-0.02
1073.022	-0.03
1073.437	-0.03
1073.852	-0.03
1074.266	-0.03
1074.681	-0.03
1075.096	-0.03
1075.51	-0.03
1075.925	-0.03
1076.339	-0.03
1076.754	-0.03
1077.168	-0.03
1077.583	-0.03
1077.997	-0.03
1078.412	-0.03
1078.826	-0.03
1079.24	-0.03
1079.655	-0.03
1080.069	-0.03
1080.483	-0.03
1080.897	-0.03
1081.312	-0.03
1081.726	-0.03
1082.14	-0.03
1082.554	-0.03
1082.968	-0.03
1083.382	-0.03
1083.796	-0.03
1084.21	-0.03
1084.624	-0.03
1085.038	-0.03
1085.452	-0.03
1085.866	-0.03
1086.28	-0.03
1086.694	-0.03
1087.108	-0.03
1087.521	-0.03
1087.935	-0.03
1088.349	-0.03
1088.763	-0.03
1089.176	-0.03
1089.59	-0.03
1090.004	-0.03
1090.417	-0.03
1090.831	-0.03
1091.244	-0.03
1091.658	-0.03
1092.071	-0.03
1092.485	-0.03
1092.898	-0.03
1093.312	-0.04
1093.725	-0.04
1094.138	-0.04
1094.552	-0.04
1094.965	-0.04
1095.378	-0.04
1095.791	-0.04
1096.205	-0.04
1096.618	-0.04
1097.031	-0.04
1097.444	-0.04
1097.857	-0.04
1098.27	-0.04
1098.683	-0.04
1099.096	-0.04
1099.509	-0.04
1099.922	-0.04
1100.335	-0.04
1100.748	-0.04
1101.161	-0.04
1101.574	-0.04
1101.986	-0.04
1102.399	-0.05
1102.812	-0.05
1103.225	-0.05
1103.637	-0.05
1104.05	-0.05
1104.463	-0.05
1104.875	-0.05
1105.288	-0.05
1105.7	-0.05
1106.113	-0.06
1106.525	-0.06
1106.938	-0.06
1107.35	-0.06
1107.763	-0.06
1108.175	-0.06
1108.588	-0.06
1109	-0.06
1109.412	-0.06
1109.824	-0.07
1110.237	-0.06
1110.649	-0.06
1111.061	-0.07
