Data from 2024-02-06-100ns-20nr-25nacl-100h2o-7bp2-1_5a808-40to10hyt-0_5cpm_Absorbance__88__00215.txt Node

Date: Tue Feb 06 12:51:51 CET 2024
User: Laser008
Spectrometer: MAYP115816
Trigger mode: 0
Integration Time (sec): 2.000000E-1
Scans to average: 10
Electric dark correction enabled: true
Nonlinearity correction enabled: true
Boxcar width: 5
XAxis mode: Wavelengths
Number of Pixels in Spectrum: 2068
>>>>>Begin Spectral Data<<<<<
198.914	-0.33
199.384	-0.3
199.855	-0.23
200.325	-0.19
200.796	-0.17
201.266	-0.15
201.737	-0.14
202.207	-0.13
202.677	-0.13
203.147	-0.13
203.618	-0.11
204.088	-0.1
204.558	-0.09
205.028	-0.09
205.498	-0.09
205.968	-0.09
206.439	-0.09
206.909	-0.09
207.379	-0.09
207.849	-0.09
208.319	-0.09
208.789	-0.09
209.258	-0.09
209.728	-0.09
210.198	-0.09
210.668	-0.09
211.138	-0.09
211.608	-0.09
212.077	-0.09
212.547	-0.1
213.017	-0.09
213.486	-0.1
213.956	-0.09
214.426	-0.09
214.895	-0.09
215.365	-0.09
215.834	-0.09
216.304	-0.09
216.773	-0.09
217.243	-0.09
217.712	-0.08
218.181	-0.08
218.651	-0.08
219.12	-0.08
219.589	-0.07
220.058	-0.08
220.528	-0.08
220.997	-0.07
221.466	-0.07
221.935	-0.07
222.404	-0.07
222.873	-0.06
223.342	-0.06
223.812	-0.06
224.281	-0.05
224.749	-0.04
225.218	-0.04
225.687	-0.04
226.156	-0.02
226.625	-0.01
227.094	-0.01
227.563	0
228.031	0.01
228.5	0.03
228.969	0.04
229.438	0.06
229.906	0.08
230.375	0.1
230.844	0.12
231.312	0.15
231.781	0.16
232.249	0.19
232.718	0.21
233.186	0.23
233.655	0.26
234.123	0.28
234.591	0.3
235.06	0.31
235.528	0.33
235.996	0.35
236.465	0.36
236.933	0.37
237.401	0.38
237.869	0.39
238.337	0.4
238.805	0.41
239.274	0.42
239.742	0.42
240.21	0.43
240.678	0.44
241.146	0.44
241.614	0.44
242.081	0.45
242.549	0.45
243.017	0.46
243.485	0.46
243.953	0.46
244.421	0.46
244.888	0.47
245.356	0.47
245.824	0.47
246.291	0.47
246.759	0.48
247.227	0.48
247.694	0.48
248.162	0.48
248.629	0.49
249.097	0.49
249.564	0.49
250.032	0.49
250.499	0.49
250.967	0.49
251.434	0.5
251.901	0.5
252.369	0.5
252.836	0.5
253.303	0.5
253.77	0.5
254.237	0.51
254.705	0.51
255.172	0.51
255.639	0.51
256.106	0.51
256.573	0.51
257.04	0.51
257.507	0.51
257.974	0.51
258.441	0.51
258.908	0.51
259.375	0.51
259.841	0.51
260.308	0.51
260.775	0.51
261.242	0.51
261.709	0.51
262.175	0.51
262.642	0.51
263.109	0.51
263.575	0.51
264.042	0.51
264.508	0.5
264.975	0.5
265.441	0.5
265.908	0.5
266.374	0.5
266.841	0.5
267.307	0.5
267.773	0.49
268.24	0.49
268.706	0.49
269.172	0.49
269.639	0.48
270.105	0.48
270.571	0.48
271.037	0.48
271.503	0.47
271.969	0.47
272.435	0.47
272.902	0.47
273.368	0.46
273.834	0.46
274.3	0.46
274.765	0.45
275.231	0.45
275.697	0.45
276.163	0.45
276.629	0.44
277.095	0.44
277.56	0.44
278.026	0.43
278.492	0.43
278.958	0.43
279.423	0.43
279.889	0.42
280.354	0.42
280.82	0.42
281.286	0.41
281.751	0.41
282.217	0.41
282.682	0.4
283.147	0.4
283.613	0.4
284.078	0.4
284.544	0.39
285.009	0.39
285.474	0.39
285.939	0.38
286.405	0.38
286.87	0.38
287.335	0.38
287.8	0.38
288.265	0.37
288.73	0.37
289.195	0.37
289.66	0.37
290.125	0.36
290.59	0.36
291.055	0.36
291.52	0.36
291.985	0.36
292.45	0.35
292.915	0.35
293.38	0.35
293.844	0.35
294.309	0.35
294.774	0.35
295.239	0.34
295.703	0.34
296.168	0.34
296.632	0.34
297.097	0.34
297.562	0.34
298.026	0.34
298.491	0.33
298.955	0.33
299.419	0.33
299.884	0.33
300.348	0.33
300.813	0.33
301.277	0.33
301.741	0.33
302.205	0.33
302.67	0.32
303.134	0.32
303.598	0.32
304.062	0.32
304.526	0.32
304.99	0.32
305.454	0.32
305.919	0.32
306.383	0.32
306.847	0.32
307.31	0.31
307.774	0.31
308.238	0.31
308.702	0.31
309.166	0.31
309.63	0.31
310.094	0.31
310.557	0.31
311.021	0.31
311.485	0.31
311.948	0.31
312.412	0.3
312.876	0.3
313.339	0.3
313.803	0.3
314.266	0.3
314.73	0.3
315.193	0.3
315.657	0.3
316.12	0.3
316.584	0.3
317.047	0.3
317.51	0.3
317.973	0.29
318.437	0.29
318.9	0.29
319.363	0.29
319.826	0.29
320.29	0.29
320.753	0.29
321.216	0.29
321.679	0.29
322.142	0.29
322.605	0.29
323.068	0.29
323.531	0.29
323.994	0.29
324.457	0.28
324.92	0.28
325.382	0.28
325.845	0.28
326.308	0.28
326.771	0.28
327.233	0.28
327.696	0.28
328.159	0.28
328.622	0.28
329.084	0.28
329.547	0.28
330.009	0.28
330.472	0.28
330.934	0.27
331.397	0.27
331.859	0.27
332.322	0.27
332.784	0.27
333.246	0.27
333.709	0.27
334.171	0.27
334.633	0.27
335.096	0.27
335.558	0.27
336.02	0.27
336.482	0.27
336.944	0.27
337.406	0.27
337.868	0.27
338.331	0.26
338.793	0.26
339.255	0.26
339.717	0.26
340.178	0.26
340.64	0.26
341.102	0.26
341.564	0.26
342.026	0.26
342.488	0.26
342.949	0.26
343.411	0.26
343.873	0.26
344.335	0.26
344.796	0.26
345.258	0.26
345.719	0.26
346.181	0.26
346.643	0.26
347.104	0.26
347.566	0.26
348.027	0.26
348.488	0.26
348.95	0.26
349.411	0.26
349.873	0.26
350.334	0.26
350.795	0.25
351.256	0.25
351.718	0.25
352.179	0.25
352.64	0.25
353.101	0.25
353.562	0.25
354.023	0.25
354.484	0.25
354.945	0.25
355.406	0.25
355.867	0.25
356.328	0.25
356.789	0.25
357.25	0.25
357.711	0.25
358.172	0.25
358.633	0.25
359.093	0.25
359.554	0.25
360.015	0.25
360.476	0.25
360.936	0.25
361.397	0.25
361.858	0.25
362.318	0.25
362.779	0.25
363.239	0.25
363.7	0.25
364.16	0.25
364.621	0.25
365.081	0.25
365.541	0.25
366.002	0.25
366.462	0.25
366.922	0.25
367.383	0.25
367.843	0.25
368.303	0.25
368.763	0.25
369.223	0.25
369.684	0.25
370.144	0.25
370.604	0.25
371.064	0.25
371.524	0.25
371.984	0.25
372.444	0.24
372.904	0.24
373.363	0.24
373.823	0.24
374.283	0.24
374.743	0.24
375.203	0.24
375.663	0.24
376.122	0.24
376.582	0.24
377.042	0.24
377.501	0.24
377.961	0.24
378.42	0.24
378.88	0.24
379.34	0.24
379.799	0.24
380.259	0.24
380.718	0.24
381.177	0.24
381.637	0.24
382.096	0.24
382.555	0.24
383.015	0.24
383.474	0.24
383.933	0.24
384.393	0.24
384.852	0.24
385.311	0.24
385.77	0.24
386.229	0.24
386.688	0.24
387.147	0.24
387.606	0.24
388.065	0.24
388.524	0.24
388.983	0.24
389.442	0.23
389.901	0.23
390.36	0.23
390.819	0.23
391.277	0.23
391.736	0.23
392.195	0.23
392.654	0.23
393.112	0.23
393.571	0.23
394.03	0.23
394.488	0.23
394.947	0.23
395.405	0.23
395.864	0.23
396.322	0.23
396.781	0.23
397.239	0.23
397.698	0.23
398.156	0.23
398.614	0.23
399.073	0.23
399.531	0.23
399.989	0.23
400.447	0.23
400.905	0.23
401.364	0.23
401.822	0.23
402.28	0.23
402.738	0.22
403.196	0.22
403.654	0.22
404.112	0.22
404.57	0.22
405.028	0.22
405.486	0.22
405.944	0.22
406.402	0.22
406.859	0.22
407.317	0.22
407.775	0.22
408.233	0.22
408.691	0.22
409.148	0.22
409.606	0.22
410.064	0.22
410.521	0.22
410.979	0.22
411.436	0.22
411.894	0.22
412.351	0.22
412.809	0.22
413.266	0.22
413.724	0.22
414.181	0.22
414.638	0.22
415.096	0.22
415.553	0.22
416.01	0.22
416.467	0.22
416.925	0.22
417.382	0.22
417.839	0.22
418.296	0.22
418.753	0.22
419.21	0.22
419.667	0.22
420.124	0.22
420.581	0.22
421.038	0.22
421.495	0.22
421.952	0.22
422.409	0.21
422.866	0.21
423.322	0.21
423.779	0.21
424.236	0.21
424.693	0.21
425.149	0.21
425.606	0.21
426.063	0.21
426.519	0.21
426.976	0.21
427.433	0.21
427.889	0.21
428.346	0.21
428.802	0.21
429.258	0.21
429.715	0.21
430.171	0.21
430.628	0.21
431.084	0.21
431.54	0.21
431.997	0.21
432.453	0.21
432.909	0.21
433.365	0.21
433.821	0.21
434.277	0.21
434.734	0.21
435.19	0.21
435.646	0.21
436.102	0.21
436.558	0.21
437.014	0.21
437.47	0.21
437.925	0.21
438.381	0.21
438.837	0.21
439.293	0.21
439.749	0.21
440.205	0.21
440.66	0.21
441.116	0.21
441.572	0.21
442.027	0.21
442.483	0.21
442.939	0.21
443.394	0.21
443.85	0.21
444.305	0.21
444.761	0.21
445.216	0.21
445.672	0.21
446.127	0.21
446.582	0.21
447.038	0.21
447.493	0.21
447.948	0.21
448.403	0.21
448.859	0.21
449.314	0.21
449.769	0.21
450.224	0.21
450.679	0.21
451.134	0.21
451.589	0.21
452.044	0.21
452.499	0.21
452.954	0.21
453.409	0.21
453.864	0.21
454.319	0.21
454.774	0.21
455.229	0.21
455.684	0.21
456.138	0.21
456.593	0.2
457.048	0.2
457.503	0.2
457.957	0.21
458.412	0.21
458.866	0.21
459.321	0.21
459.776	0.2
460.23	0.2
460.685	0.2
461.139	0.21
461.593	0.21
462.048	0.21
462.502	0.21
462.957	0.21
463.411	0.21
463.865	0.21
464.319	0.21
464.774	0.21
465.228	0.21
465.682	0.21
466.136	0.21
466.59	0.21
467.044	0.21
467.499	0.21
467.953	0.21
468.407	0.21
468.861	0.21
469.315	0.21
469.768	0.21
470.222	0.21
470.676	0.21
471.13	0.21
471.584	0.21
472.038	0.21
472.491	0.21
472.945	0.21
473.399	0.21
473.852	0.21
474.306	0.21
474.76	0.21
475.213	0.21
475.667	0.21
476.12	0.21
476.574	0.21
477.027	0.22
477.481	0.22
477.934	0.22
478.388	0.22
478.841	0.22
479.294	0.22
479.748	0.22
480.201	0.22
480.654	0.22
481.107	0.22
481.561	0.22
482.014	0.22
482.467	0.23
482.92	0.23
483.373	0.23
483.826	0.23
484.279	0.23
484.732	0.23
485.185	0.23
485.638	0.23
486.091	0.23
486.544	0.23
486.997	0.24
487.449	0.24
487.902	0.24
488.355	0.24
488.808	0.24
489.26	0.24
489.713	0.24
490.166	0.24
490.618	0.24
491.071	0.25
491.523	0.25
491.976	0.25
492.429	0.25
492.881	0.25
493.333	0.25
493.786	0.26
494.238	0.26
494.691	0.26
495.143	0.26
495.595	0.26
496.048	0.26
496.5	0.27
496.952	0.27
497.404	0.27
497.856	0.27
498.309	0.27
498.761	0.27
499.213	0.28
499.665	0.28
500.117	0.28
500.569	0.28
501.021	0.29
501.473	0.29
501.925	0.29
502.377	0.29
502.828	0.29
503.28	0.3
503.732	0.3
504.184	0.3
504.636	0.3
505.087	0.3
505.539	0.31
505.991	0.31
506.442	0.31
506.894	0.31
507.345	0.31
507.797	0.32
508.249	0.32
508.7	0.32
509.151	0.32
509.603	0.32
510.054	0.32
510.506	0.33
510.957	0.33
511.408	0.33
511.86	0.33
512.311	0.33
512.762	0.33
513.213	0.33
513.665	0.34
514.116	0.34
514.567	0.34
515.018	0.34
515.469	0.34
515.92	0.34
516.371	0.34
516.822	0.35
517.273	0.35
517.724	0.35
518.175	0.35
518.626	0.35
519.076	0.35
519.527	0.35
519.978	0.35
520.429	0.35
520.88	0.35
521.33	0.35
521.781	0.35
522.232	0.35
522.682	0.35
523.133	0.35
523.583	0.35
524.034	0.35
524.484	0.35
524.935	0.35
525.385	0.35
525.836	0.35
526.286	0.35
526.736	0.35
527.187	0.35
527.637	0.35
528.087	0.35
528.538	0.35
528.988	0.35
529.438	0.35
529.888	0.35
530.338	0.35
530.788	0.35
531.238	0.35
531.688	0.35
532.139	0.34
532.589	0.34
533.038	0.34
533.488	0.34
533.938	0.34
534.388	0.34
534.838	0.34
535.288	0.33
535.738	0.33
536.187	0.33
536.637	0.33
537.087	0.33
537.537	0.33
537.986	0.32
538.436	0.32
538.885	0.32
539.335	0.32
539.785	0.32
540.234	0.32
540.684	0.31
541.133	0.31
541.582	0.31
542.032	0.31
542.481	0.31
542.931	0.3
543.38	0.3
543.829	0.3
544.278	0.3
544.728	0.29
545.177	0.29
545.626	0.29
546.075	0.29
546.524	0.28
546.973	0.28
547.422	0.28
547.871	0.28
548.32	0.28
548.769	0.27
549.218	0.27
549.667	0.27
550.116	0.27
550.565	0.26
551.014	0.26
551.463	0.26
551.911	0.25
552.36	0.25
552.809	0.25
553.258	0.25
553.706	0.25
554.155	0.24
554.603	0.24
555.052	0.24
555.501	0.24
555.949	0.23
556.398	0.23
556.846	0.23
557.294	0.23
557.743	0.22
558.191	0.22
558.64	0.22
559.088	0.22
559.536	0.22
559.985	0.21
560.433	0.21
560.881	0.21
561.329	0.21
561.777	0.21
562.225	0.2
562.674	0.2
563.122	0.2
563.57	0.2
564.018	0.2
564.466	0.19
564.914	0.19
565.362	0.19
565.809	0.19
566.257	0.19
566.705	0.18
567.153	0.18
567.601	0.18
568.048	0.18
568.496	0.18
568.944	0.17
569.392	0.17
569.839	0.17
570.287	0.17
570.734	0.17
571.182	0.17
571.63	0.16
572.077	0.16
572.525	0.16
572.972	0.16
573.419	0.16
573.867	0.16
574.314	0.16
574.761	0.15
575.209	0.15
575.656	0.15
576.103	0.15
576.551	0.15
576.998	0.15
577.445	0.14
577.892	0.14
578.339	0.14
578.786	0.14
579.233	0.14
579.68	0.14
580.127	0.14
580.574	0.14
581.021	0.13
581.468	0.13
581.915	0.13
582.362	0.13
582.809	0.13
583.255	0.13
583.702	0.13
584.149	0.12
584.596	0.12
585.042	0.12
585.489	0.12
585.936	0.12
586.382	0.12
586.829	0.12
587.275	0.12
587.722	0.12
588.168	0.12
588.615	0.11
589.061	0.11
589.508	0.11
589.954	0.11
590.4	0.11
590.847	0.11
591.293	0.11
591.739	0.11
592.185	0.11
592.632	0.11
593.078	0.11
593.524	0.11
593.97	0.11
594.416	0.11
594.862	0.1
595.308	0.1
595.754	0.1
596.2	0.1
596.646	0.1
597.092	0.1
597.538	0.1
597.984	0.1
598.43	0.1
598.876	0.1
599.321	0.1
599.767	0.1
600.213	0.1
600.659	0.1
601.104	0.1
601.55	0.1
601.995	0.1
602.441	0.1
602.887	0.1
603.332	0.1
603.778	0.1
604.223	0.1
604.668	0.1
605.114	0.1
605.559	0.1
606.005	0.1
606.45	0.1
606.895	0.09
607.341	0.09
607.786	0.09
608.231	0.09
608.676	0.09
609.121	0.09
609.566	0.09
610.012	0.09
610.457	0.09
610.902	0.09
611.347	0.09
611.792	0.09
612.237	0.09
612.682	0.09
613.127	0.09
613.571	0.09
614.016	0.09
614.461	0.09
614.906	0.09
615.351	0.09
615.795	0.09
616.24	0.09
616.685	0.09
617.129	0.09
617.574	0.09
618.019	0.09
618.463	0.09
618.908	0.09
619.352	0.09
619.797	0.09
620.241	0.1
620.686	0.1
621.13	0.1
621.574	0.1
622.019	0.1
622.463	0.1
622.907	0.1
623.352	0.1
623.796	0.1
624.24	0.1
624.684	0.1
625.128	0.1
625.572	0.1
626.016	0.1
626.461	0.1
626.905	0.1
627.349	0.1
627.793	0.1
628.236	0.1
628.68	0.1
629.124	0.1
629.568	0.11
630.012	0.11
630.456	0.11
630.9	0.11
631.343	0.11
631.787	0.11
632.231	0.11
632.674	0.11
633.118	0.11
633.562	0.12
634.005	0.12
634.449	0.12
634.892	0.12
635.336	0.12
635.779	0.12
636.223	0.13
636.666	0.13
637.109	0.13
637.553	0.13
637.996	0.13
638.439	0.13
638.883	0.13
639.326	0.14
639.769	0.14
640.212	0.14
640.655	0.14
641.099	0.14
641.542	0.14
641.985	0.14
642.428	0.15
642.871	0.15
643.314	0.15
643.757	0.15
644.2	0.16
644.643	0.16
645.085	0.16
645.528	0.16
645.971	0.16
646.414	0.17
646.857	0.17
647.299	0.17
647.742	0.18
648.185	0.18
648.627	0.18
649.07	0.18
649.513	0.19
649.955	0.19
650.398	0.19
650.84	0.19
651.283	0.2
651.725	0.2
652.168	0.2
652.61	0.21
653.052	0.21
653.495	0.21
653.937	0.17
654.379	0.13
654.821	0.14
655.264	0.14
655.706	0.14
656.148	0.14
656.59	0.15
657.032	0.15
657.474	0.15
657.916	0.15
658.358	0.14
658.8	0.18
659.242	0.24
659.684	0.25
660.126	0.25
660.568	0.25
661.01	0.26
661.452	0.26
661.894	0.26
662.335	0.27
662.777	0.27
663.219	0.27
663.661	0.28
664.102	0.28
664.544	0.28
664.985	0.28
665.427	0.29
665.869	0.29
666.31	0.29
666.752	0.3
667.193	0.3
667.634	0.3
668.076	0.3
668.517	0.31
668.959	0.31
669.4	0.31
669.841	0.32
670.282	0.32
670.724	0.32
671.165	0.32
671.606	0.32
672.047	0.33
672.488	0.33
672.929	0.33
673.37	0.33
673.811	0.33
674.252	0.34
674.693	0.34
675.134	0.34
675.575	0.34
676.016	0.34
676.457	0.35
676.898	0.35
677.339	0.35
677.78	0.35
678.22	0.35
678.661	0.35
679.102	0.35
679.542	0.35
679.983	0.35
680.424	0.35
680.864	0.35
681.305	0.35
681.745	0.36
682.186	0.36
682.626	0.36
683.067	0.36
683.507	0.36
683.948	0.36
684.388	0.36
684.828	0.36
685.269	0.36
685.709	0.36
686.149	0.36
686.589	0.36
687.029	0.36
687.47	0.36
687.91	0.36
688.35	0.36
688.79	0.36
689.23	0.36
689.67	0.36
690.11	0.36
690.55	0.36
690.99	0.36
691.43	0.36
691.87	0.35
692.31	0.35
692.749	0.35
693.189	0.35
693.629	0.35
694.069	0.35
694.508	0.35
694.948	0.35
695.388	0.35
695.827	0.34
696.267	0.34
696.706	0.34
697.146	0.34
697.586	0.34
698.025	0.34
698.464	0.33
698.904	0.33
699.343	0.33
699.783	0.33
700.222	0.33
700.661	0.33
701.101	0.32
701.54	0.32
701.979	0.32
702.418	0.32
702.857	0.32
703.297	0.31
703.736	0.31
704.175	0.31
704.614	0.31
705.053	0.3
705.492	0.3
705.931	0.3
706.37	0.3
706.809	0.3
707.248	0.29
707.687	0.29
708.125	0.29
708.564	0.29
709.003	0.28
709.442	0.28
709.88	0.28
710.319	0.28
710.758	0.27
711.196	0.27
711.635	0.27
712.074	0.27
712.512	0.26
712.951	0.26
713.389	0.26
713.828	0.26
714.266	0.26
714.705	0.26
715.143	0.25
715.581	0.25
716.02	0.25
716.458	0.25
716.896	0.25
717.334	0.24
717.773	0.24
718.211	0.24
718.649	0.24
719.087	0.24
719.525	0.23
719.963	0.23
720.401	0.23
720.839	0.23
721.277	0.22
721.715	0.22
722.153	0.22
722.591	0.22
723.029	0.22
723.467	0.21
723.905	0.21
724.342	0.21
724.78	0.21
725.218	0.21
725.656	0.2
726.093	0.2
726.531	0.2
726.969	0.2
727.406	0.2
727.844	0.19
728.281	0.19
728.719	0.19
729.156	0.19
729.594	0.19
730.031	0.19
730.469	0.18
730.906	0.18
731.343	0.18
731.781	0.18
732.218	0.18
732.655	0.18
733.092	0.17
733.53	0.17
733.967	0.17
734.404	0.17
734.841	0.17
735.278	0.16
735.715	0.16
736.152	0.16
736.589	0.16
737.026	0.15
737.463	0.15
737.9	0.15
738.337	0.15
738.774	0.15
739.211	0.15
739.647	0.14
740.084	0.14
740.521	0.14
740.958	0.14
741.394	0.14
741.831	0.14
742.268	0.14
742.704	0.14
743.141	0.14
743.577	0.13
744.014	0.13
744.45	0.13
744.887	0.13
745.323	0.13
745.76	0.12
746.196	0.12
746.632	0.12
747.069	0.12
747.505	0.12
747.941	0.12
748.378	0.12
748.814	0.12
749.25	0.12
749.686	0.11
750.122	0.11
750.558	0.11
750.994	0.11
751.43	0.11
751.866	0.11
752.302	0.11
752.738	0.1
753.174	0.1
753.61	0.1
754.046	0.1
754.482	0.1
754.918	0.1
755.354	0.1
755.789	0.09
756.225	0.09
756.661	0.09
757.096	0.09
757.532	0.09
757.968	0.09
758.403	0.09
758.839	0.09
759.274	0.09
759.71	0.09
760.145	0.08
760.581	0.08
761.016	0.08
761.452	0.08
761.887	0.08
762.322	0.08
762.758	0.08
763.193	0.08
763.628	0.08
764.063	0.08
764.499	0.07
764.934	0.07
765.369	0.07
765.804	0.07
766.239	0.07
766.674	0.07
767.109	0.07
767.544	0.07
767.979	0.06
768.414	0.06
768.849	0.06
769.284	0.06
769.719	0.06
770.154	0.06
770.588	0.06
771.023	0.05
771.458	0.05
771.893	0.05
772.327	0.05
772.762	0.05
773.197	0.05
773.631	0.04
774.066	0.04
774.5	0.04
774.935	0.04
775.369	0.03
775.804	0.03
776.238	0.03
776.673	0.03
777.107	0.03
777.541	0.02
777.976	0.02
778.41	0.02
778.844	0.02
779.279	0.02
779.713	0.02
780.147	0.01
780.581	0.01
781.015	0.01
781.449	0
781.883	0
782.317	-0
782.751	-0
783.185	-0.01
783.619	-0.01
784.053	-0.02
784.487	-0.02
784.921	-0.02
785.355	-0.03
785.789	-0.03
786.223	-0.03
786.656	-0.03
787.09	-0.03
787.524	-0.04
787.957	-0.04
788.391	-0.04
788.825	-0.05
789.258	-0.05
789.692	-0.05
790.125	-0.06
790.559	-0.06
790.992	-0.07
791.426	-0.07
791.859	-0.08
792.293	-0.07
792.726	-0.07
793.159	-0.08
793.593	-0.08
794.026	-0.09
794.459	-0.1
794.892	-0.1
795.326	-0.11
795.759	-0.11
796.192	-0.11
796.625	-0.12
797.058	-0.13
797.491	-0.14
797.924	-0.15
798.357	-0.15
798.79	-0.15
799.223	-0.15
799.656	-0.15
800.089	-0.15
800.522	-0.15
800.955	-0.16
801.387	-0.15
801.82	-0.16
802.253	-0.16
802.686	-0.16
803.118	-0.16
803.551	-0.16
803.984	-0.15
804.416	-0.15
804.849	-0.14
805.281	-0.14
805.714	-0.14
806.146	-0.14
806.579	-0.13
807.011	-0.13
807.444	-0.13
807.876	-0.13
808.308	-0.13
808.741	-0.14
809.173	-0.14
809.605	-0.15
810.037	-0.15
810.47	-0.15
810.902	-0.15
811.334	-0.14
811.766	-0.14
812.198	-0.13
812.63	-0.12
813.062	-0.12
813.494	-0.11
813.926	-0.1
814.358	-0.09
814.79	-0.08
815.222	-0.07
815.654	-0.07
816.086	-0.06
816.518	-0.06
816.949	-0.05
817.381	-0.05
817.813	-0.04
818.245	-0.04
818.676	-0.03
819.108	-0.03
819.54	-0.02
819.971	-0.02
820.403	-0.02
820.834	-0.02
821.266	-0.01
821.697	-0.01
822.129	-0.01
822.56	-0.01
822.991	-0
823.423	-0
823.854	-0
824.286	-0
824.717	0
825.148	0
825.579	0
826.01	0
826.442	0.01
826.873	0.01
827.304	0.01
827.735	0.01
828.166	0.01
828.597	0.01
829.028	0.01
829.459	0.01
829.89	0.01
830.321	0.01
830.752	0.01
831.183	0.01
831.613	0.01
832.044	0.01
832.475	0.01
832.906	0.01
833.336	0.01
833.767	0.01
834.198	0.01
834.628	0.01
835.059	0.01
835.49	0.01
835.92	0.01
836.351	0.01
836.781	0.01
837.212	0.01
837.642	0.01
838.072	0.01
838.503	0.02
838.933	0.02
839.364	0.02
839.794	0.02
840.224	0.02
840.654	0.02
841.085	0.02
841.515	0.02
841.945	0.02
842.375	0.02
842.805	0.01
843.235	0.01
843.665	0.01
844.095	0.01
844.525	0.01
844.955	0.01
845.385	0.01
845.815	0.01
846.245	0.01
846.675	0.01
847.105	0.01
847.534	0.01
847.964	0.01
848.394	0.01
848.824	0.01
849.253	0.01
849.683	0.01
850.112	0.01
850.542	0.01
850.972	0.01
851.401	0.01
851.831	0.01
852.26	0.01
852.69	0.01
853.119	0.01
853.548	0.01
853.978	0.01
854.407	0.01
854.836	0.01
855.266	0.01
855.695	0.01
856.124	0.01
856.553	0.01
856.983	0.02
857.412	0.02
857.841	0.02
858.27	0.02
858.699	0.02
859.128	0.02
859.557	0.02
859.986	0.02
860.415	0.02
860.844	0.02
861.273	0.02
861.702	0.02
862.13	0.02
862.559	0.02
862.988	0.02
863.417	0.02
863.845	0.02
864.274	0.02
864.703	0.02
865.131	0.02
865.56	0.02
865.989	0.02
866.417	0.02
866.846	0.02
867.274	0.01
867.703	0.01
868.131	0.01
868.559	0.01
868.988	0.01
869.416	0.01
869.844	0.01
870.273	0.01
870.701	0.01
871.129	0.01
871.557	0.01
871.986	0.01
872.414	0.01
872.842	0.01
873.27	0.01
873.698	0.01
874.126	0.01
874.554	0.01
874.982	0.01
875.41	0
875.838	0
876.266	0
876.694	0
877.122	0
877.549	0
877.977	0
878.405	0
878.833	0
879.26	0
879.688	0
880.116	0
880.543	0
880.971	0
881.399	0
881.826	0.01
882.254	0.01
882.681	0.01
883.109	0.01
883.536	0.01
883.963	0.01
884.391	0.01
884.818	0.01
885.245	0.01
885.673	0.01
886.1	0.01
886.527	0.01
886.954	0.01
887.381	0.01
887.809	0.01
888.236	0.01
888.663	0.01
889.09	0.01
889.517	0.01
889.944	0.01
890.371	0.01
890.798	0.01
891.225	0.01
891.652	0.01
892.078	0.01
892.505	0
892.932	0
893.359	0
893.786	0
894.212	0
894.639	0
895.066	0
895.492	0
895.919	0
896.346	-0
896.772	-0
897.199	-0
897.625	-0
898.052	-0.01
898.478	-0.01
898.904	-0.01
899.331	-0.01
899.757	-0.01
900.183	-0.01
900.61	-0.01
901.036	-0.01
901.462	-0.01
901.888	-0.01
902.315	-0.01
902.741	-0.01
903.167	-0.01
903.593	-0.01
904.019	-0.01
904.445	-0.01
904.871	-0.01
905.297	-0.01
905.723	-0.01
906.149	-0.01
906.575	-0.01
907.001	-0.01
907.427	-0.01
907.852	-0.01
908.278	-0.01
908.704	-0
909.13	-0
909.555	-0
909.981	-0
910.407	-0
910.832	-0
911.258	-0
911.684	-0
912.109	-0
912.535	-0
912.96	-0
913.386	-0
913.811	-0
914.236	-0
914.662	-0
915.087	0
915.512	0
915.938	0
916.363	0
916.788	0
917.213	0
917.639	-0
918.064	-0
918.489	-0
918.914	-0
919.339	-0
919.764	-0
920.189	-0
920.614	-0
921.039	-0
921.464	-0
921.889	0
922.314	0
922.738	0
923.163	0
923.588	0
924.013	0.01
924.437	0.01
924.862	0.01
925.287	0.01
925.711	0.01
926.136	0.01
926.561	0.01
926.985	0.01
927.41	0.01
927.834	0.01
928.259	0.01
928.683	0.01
929.108	0
929.532	0
929.956	0
930.381	0
930.805	0
931.229	0
931.653	0
932.078	0
932.502	0
932.926	0
933.35	0
933.774	0
934.198	0
934.622	0
935.046	0
935.47	0
935.894	0
936.318	0
936.742	0
937.166	0
937.59	0
938.014	0
938.437	-0
938.861	-0
939.285	-0
939.709	-0
940.132	-0
940.556	-0
940.98	-0
941.403	-0
941.827	-0
942.25	-0
942.674	-0
943.097	-0
943.521	-0
943.944	-0
944.368	-0
944.791	-0
945.214	-0
945.638	-0
946.061	-0
946.484	-0.01
946.907	-0.01
947.331	-0.01
947.754	-0.01
948.177	-0.01
948.6	-0.01
949.023	-0.01
949.446	-0.01
949.869	-0.01
950.292	-0.01
950.715	-0.02
951.138	-0.02
951.561	-0.02
951.984	-0.02
952.407	-0.02
952.83	-0.02
953.252	-0.02
953.675	-0.02
954.098	-0.02
954.521	-0.02
954.943	-0.02
955.366	-0.02
955.789	-0.02
956.211	-0.02
956.634	-0.02
957.056	-0.01
957.479	-0.01
957.902	-0.01
958.324	-0.01
958.746	-0.01
959.169	-0.01
959.591	-0.01
960.014	-0
960.436	-0
960.858	-0
961.281	-0
961.703	-0
962.125	-0
962.547	-0
962.969	0
963.391	0
963.814	0
964.236	0
964.658	0
965.08	0
965.502	0
965.924	0
966.346	0
966.768	0
967.189	-0
967.611	-0
968.033	-0
968.455	-0
968.877	-0
969.298	-0
969.72	-0
970.142	-0
970.563	-0
970.985	-0
971.407	-0
971.828	-0
972.25	-0
972.671	-0
973.093	-0
973.514	-0
973.936	-0
974.357	-0
974.778	-0
975.2	-0
975.621	-0
976.042	-0
976.464	-0
976.885	-0
977.306	-0
977.727	-0
978.148	-0
978.57	-0
978.991	-0
979.412	-0
979.833	-0
980.254	-0
980.675	-0
981.096	-0
981.517	-0
981.937	-0
982.358	0
982.779	0
983.2	-0
983.621	-0
984.042	-0
984.462	-0
984.883	-0
985.304	-0
985.724	-0
986.145	-0.01
986.565	-0.01
986.986	-0.01
987.407	-0.01
987.827	-0.01
988.248	-0.01
988.668	-0.01
989.088	-0.01
989.509	-0.01
989.929	-0.01
990.35	-0.01
990.77	-0.01
991.19	-0.01
991.61	-0.01
992.031	-0.01
992.451	-0.01
992.871	-0.01
993.291	-0.01
993.711	-0.01
994.131	-0.01
994.551	-0.01
994.971	-0.01
995.391	-0.02
995.811	-0.02
996.231	-0.02
996.651	-0.02
997.071	-0.02
997.491	-0.02
997.911	-0.02
998.331	-0.02
998.75	-0.02
999.17	-0.01
999.59	-0.01
1000.009	-0.01
1000.429	-0.01
1000.849	-0.01
1001.268	-0.01
1001.688	-0.01
1002.107	-0.01
1002.527	-0.01
1002.946	-0.01
1003.366	-0.01
1003.785	-0.01
1004.205	-0.01
1004.624	-0.02
1005.044	-0.02
1005.463	-0.02
1005.882	-0.02
1006.301	-0.02
1006.721	-0.02
1007.14	-0.02
1007.559	-0.02
1007.978	-0.02
1008.397	-0.02
1008.816	-0.02
1009.235	-0.02
1009.655	-0.02
1010.074	-0.02
1010.492	-0.02
1010.911	-0.02
1011.33	-0.02
1011.749	-0.02
1012.168	-0.02
1012.587	-0.02
1013.006	-0.02
1013.425	-0.02
1013.843	-0.02
1014.262	-0.02
1014.681	-0.02
1015.099	-0.02
1015.518	-0.02
1015.937	-0.02
1016.355	-0.02
1016.774	-0.02
1017.192	-0.02
1017.611	-0.02
1018.029	-0.02
1018.448	-0.02
1018.866	-0.02
1019.285	-0.02
1019.703	-0.02
1020.121	-0.02
1020.54	-0.02
1020.958	-0.02
1021.376	-0.01
1021.794	-0.01
1022.213	-0.01
1022.631	-0.01
1023.049	-0.01
1023.467	-0.01
1023.885	-0.01
1024.303	-0.01
1024.721	-0.01
1025.139	-0.01
1025.557	-0.01
1025.975	-0.01
1026.393	-0.01
1026.811	-0.01
1027.229	-0.01
1027.647	-0.01
1028.065	-0.01
1028.482	-0.01
1028.9	-0.01
1029.318	-0.01
1029.735	-0.01
1030.153	-0.01
1030.571	-0.01
1030.988	-0.01
1031.406	-0.01
1031.823	-0.01
1032.241	-0.01
1032.659	-0.01
1033.076	-0.01
1033.493	-0.01
1033.911	-0.01
1034.328	-0.01
1034.746	-0.01
1035.163	-0.01
1035.58	-0.01
1035.997	-0.01
1036.415	-0.01
1036.832	-0.01
1037.249	-0.01
1037.666	-0.01
1038.083	-0.01
1038.501	-0.01
1038.918	-0.01
1039.335	-0.01
1039.752	-0.01
1040.169	-0.01
1040.586	-0.01
1041.003	-0.01
1041.419	-0.01
1041.836	-0.01
1042.253	-0.01
1042.67	-0.01
1043.087	-0.01
1043.504	-0.01
1043.92	-0.01
1044.337	-0.01
1044.754	-0.01
1045.17	-0.01
1045.587	-0.01
1046.004	-0.01
1046.42	-0.01
1046.837	-0.01
1047.253	-0.01
1047.67	-0.01
1048.086	-0.01
1048.503	-0.01
1048.919	-0.01
1049.335	-0.01
1049.752	-0.01
1050.168	-0.01
1050.584	-0.01
1051.001	-0.01
1051.417	-0.01
1051.833	-0.01
1052.249	-0.01
1052.665	-0.01
1053.081	-0.01
1053.497	-0.01
1053.914	-0.01
1054.33	-0.01
1054.746	-0.01
1055.162	-0.01
1055.578	-0.01
1055.993	-0.01
1056.409	-0.01
1056.825	-0.01
1057.241	-0.02
1057.657	-0.02
1058.073	-0.02
1058.488	-0.02
1058.904	-0.02
1059.32	-0.02
1059.736	-0.02
1060.151	-0.02
1060.567	-0.02
1060.982	-0.02
1061.398	-0.02
1061.813	-0.02
1062.229	-0.02
1062.644	-0.02
1063.06	-0.02
1063.475	-0.02
1063.891	-0.02
1064.306	-0.02
1064.721	-0.02
1065.137	-0.02
1065.552	-0.02
1065.967	-0.02
1066.382	-0.02
1066.798	-0.02
1067.213	-0.02
1067.628	-0.02
1068.043	-0.02
1068.458	-0.02
1068.873	-0.02
1069.288	-0.02
1069.703	-0.02
1070.118	-0.02
1070.533	-0.02
1070.948	-0.02
1071.363	-0.02
1071.778	-0.02
1072.193	-0.02
1072.607	-0.02
1073.022	-0.02
1073.437	-0.02
1073.852	-0.03
1074.266	-0.03
1074.681	-0.03
1075.096	-0.03
1075.51	-0.03
1075.925	-0.03
1076.339	-0.03
1076.754	-0.03
1077.168	-0.03
1077.583	-0.03
1077.997	-0.03
1078.412	-0.03
1078.826	-0.03
1079.24	-0.03
1079.655	-0.03
1080.069	-0.03
1080.483	-0.03
1080.897	-0.03
1081.312	-0.03
1081.726	-0.03
1082.14	-0.03
1082.554	-0.03
1082.968	-0.03
1083.382	-0.03
1083.796	-0.03
1084.21	-0.03
1084.624	-0.03
1085.038	-0.03
1085.452	-0.03
1085.866	-0.03
1086.28	-0.03
1086.694	-0.03
1087.108	-0.03
1087.521	-0.03
1087.935	-0.03
1088.349	-0.03
1088.763	-0.03
1089.176	-0.03
1089.59	-0.03
1090.004	-0.03
1090.417	-0.03
1090.831	-0.03
1091.244	-0.04
1091.658	-0.04
1092.071	-0.04
1092.485	-0.04
1092.898	-0.04
1093.312	-0.04
1093.725	-0.04
1094.138	-0.04
1094.552	-0.04
1094.965	-0.04
1095.378	-0.04
1095.791	-0.04
1096.205	-0.04
1096.618	-0.04
1097.031	-0.04
1097.444	-0.04
1097.857	-0.04
1098.27	-0.04
1098.683	-0.04
1099.096	-0.04
1099.509	-0.05
1099.922	-0.05
1100.335	-0.05
1100.748	-0.05
1101.161	-0.05
1101.574	-0.05
1101.986	-0.05
1102.399	-0.05
1102.812	-0.05
1103.225	-0.05
1103.637	-0.05
1104.05	-0.05
1104.463	-0.05
1104.875	-0.05
1105.288	-0.05
1105.7	-0.06
1106.113	-0.06
1106.525	-0.06
1106.938	-0.06
1107.35	-0.06
1107.763	-0.06
1108.175	-0.07
1108.588	-0.07
1109	-0.07
1109.412	-0.07
1109.824	-0.07
1110.237	-0.07
1110.649	-0.07
1111.061	-0.08
