Data from 2024-02-06-100ns-20nr-25nacl-100h2o-7bp2-1_5a808-40to10hyt-0_5cpm_Absorbance__54__00181.txt Node

Date: Tue Feb 06 12:34:51 CET 2024
User: Laser008
Spectrometer: MAYP115816
Trigger mode: 0
Integration Time (sec): 2.000000E-1
Scans to average: 10
Electric dark correction enabled: true
Nonlinearity correction enabled: true
Boxcar width: 5
XAxis mode: Wavelengths
Number of Pixels in Spectrum: 2068
>>>>>Begin Spectral Data<<<<<
198.914	-0.34
199.384	-0.31
199.855	-0.25
200.325	-0.2
200.796	-0.18
201.266	-0.16
201.737	-0.15
202.207	-0.13
202.677	-0.13
203.147	-0.13
203.618	-0.11
204.088	-0.1
204.558	-0.09
205.028	-0.09
205.498	-0.09
205.968	-0.09
206.439	-0.09
206.909	-0.09
207.379	-0.09
207.849	-0.09
208.319	-0.09
208.789	-0.08
209.258	-0.09
209.728	-0.09
210.198	-0.08
210.668	-0.09
211.138	-0.09
211.608	-0.09
212.077	-0.09
212.547	-0.09
213.017	-0.09
213.486	-0.09
213.956	-0.09
214.426	-0.09
214.895	-0.09
215.365	-0.09
215.834	-0.09
216.304	-0.09
216.773	-0.08
217.243	-0.08
217.712	-0.08
218.181	-0.08
218.651	-0.08
219.12	-0.07
219.589	-0.07
220.058	-0.07
220.528	-0.07
220.997	-0.07
221.466	-0.06
221.935	-0.07
222.404	-0.06
222.873	-0.06
223.342	-0.06
223.812	-0.05
224.281	-0.05
224.749	-0.04
225.218	-0.04
225.687	-0.03
226.156	-0.02
226.625	-0.01
227.094	-0.01
227.563	0.01
228.031	0.01
228.5	0.03
228.969	0.04
229.438	0.06
229.906	0.08
230.375	0.1
230.844	0.12
231.312	0.14
231.781	0.16
232.249	0.18
232.718	0.2
233.186	0.23
233.655	0.25
234.123	0.27
234.591	0.29
235.06	0.3
235.528	0.32
235.996	0.33
236.465	0.34
236.933	0.36
237.401	0.37
237.869	0.38
238.337	0.38
238.805	0.39
239.274	0.4
239.742	0.4
240.21	0.41
240.678	0.41
241.146	0.42
241.614	0.42
242.081	0.43
242.549	0.43
243.017	0.43
243.485	0.44
243.953	0.44
244.421	0.44
244.888	0.44
245.356	0.45
245.824	0.45
246.291	0.45
246.759	0.45
247.227	0.45
247.694	0.46
248.162	0.46
248.629	0.46
249.097	0.46
249.564	0.47
250.032	0.47
250.499	0.47
250.967	0.47
251.434	0.47
251.901	0.48
252.369	0.48
252.836	0.48
253.303	0.48
253.77	0.48
254.237	0.48
254.705	0.48
255.172	0.49
255.639	0.49
256.106	0.49
256.573	0.49
257.04	0.49
257.507	0.49
257.974	0.49
258.441	0.49
258.908	0.49
259.375	0.49
259.841	0.49
260.308	0.49
260.775	0.49
261.242	0.49
261.709	0.49
262.175	0.49
262.642	0.49
263.109	0.49
263.575	0.49
264.042	0.49
264.508	0.49
264.975	0.49
265.441	0.48
265.908	0.48
266.374	0.48
266.841	0.48
267.307	0.48
267.773	0.48
268.24	0.47
268.706	0.47
269.172	0.47
269.639	0.47
270.105	0.47
270.571	0.46
271.037	0.46
271.503	0.46
271.969	0.46
272.435	0.46
272.902	0.45
273.368	0.45
273.834	0.45
274.3	0.45
274.765	0.44
275.231	0.44
275.697	0.44
276.163	0.44
276.629	0.43
277.095	0.43
277.56	0.43
278.026	0.42
278.492	0.42
278.958	0.42
279.423	0.42
279.889	0.41
280.354	0.41
280.82	0.41
281.286	0.4
281.751	0.4
282.217	0.4
282.682	0.4
283.147	0.39
283.613	0.39
284.078	0.39
284.544	0.39
285.009	0.38
285.474	0.38
285.939	0.38
286.405	0.38
286.87	0.37
287.335	0.37
287.8	0.37
288.265	0.37
288.73	0.37
289.195	0.36
289.66	0.36
290.125	0.36
290.59	0.36
291.055	0.36
291.52	0.35
291.985	0.35
292.45	0.35
292.915	0.35
293.38	0.35
293.844	0.35
294.309	0.34
294.774	0.34
295.239	0.34
295.703	0.34
296.168	0.34
296.632	0.34
297.097	0.34
297.562	0.33
298.026	0.33
298.491	0.33
298.955	0.33
299.419	0.33
299.884	0.33
300.348	0.33
300.813	0.33
301.277	0.33
301.741	0.33
302.205	0.33
302.67	0.32
303.134	0.32
303.598	0.32
304.062	0.32
304.526	0.32
304.99	0.32
305.454	0.32
305.919	0.32
306.383	0.32
306.847	0.32
307.31	0.31
307.774	0.31
308.238	0.31
308.702	0.31
309.166	0.31
309.63	0.31
310.094	0.31
310.557	0.31
311.021	0.31
311.485	0.31
311.948	0.31
312.412	0.31
312.876	0.31
313.339	0.31
313.803	0.3
314.266	0.3
314.73	0.3
315.193	0.3
315.657	0.3
316.12	0.3
316.584	0.3
317.047	0.3
317.51	0.3
317.973	0.3
318.437	0.3
318.9	0.3
319.363	0.3
319.826	0.29
320.29	0.29
320.753	0.29
321.216	0.29
321.679	0.29
322.142	0.29
322.605	0.29
323.068	0.29
323.531	0.29
323.994	0.29
324.457	0.29
324.92	0.29
325.382	0.29
325.845	0.28
326.308	0.28
326.771	0.28
327.233	0.28
327.696	0.28
328.159	0.28
328.622	0.28
329.084	0.28
329.547	0.28
330.009	0.28
330.472	0.28
330.934	0.28
331.397	0.28
331.859	0.28
332.322	0.28
332.784	0.28
333.246	0.28
333.709	0.27
334.171	0.27
334.633	0.27
335.096	0.27
335.558	0.27
336.02	0.27
336.482	0.27
336.944	0.27
337.406	0.27
337.868	0.27
338.331	0.27
338.793	0.27
339.255	0.27
339.717	0.27
340.178	0.27
340.64	0.27
341.102	0.27
341.564	0.27
342.026	0.27
342.488	0.26
342.949	0.26
343.411	0.26
343.873	0.26
344.335	0.26
344.796	0.26
345.258	0.26
345.719	0.26
346.181	0.26
346.643	0.26
347.104	0.26
347.566	0.26
348.027	0.26
348.488	0.26
348.95	0.26
349.411	0.26
349.873	0.26
350.334	0.26
350.795	0.26
351.256	0.26
351.718	0.26
352.179	0.26
352.64	0.26
353.101	0.26
353.562	0.26
354.023	0.26
354.484	0.26
354.945	0.26
355.406	0.26
355.867	0.26
356.328	0.26
356.789	0.26
357.25	0.26
357.711	0.26
358.172	0.26
358.633	0.26
359.093	0.26
359.554	0.26
360.015	0.25
360.476	0.25
360.936	0.25
361.397	0.26
361.858	0.26
362.318	0.26
362.779	0.26
363.239	0.26
363.7	0.25
364.16	0.25
364.621	0.25
365.081	0.25
365.541	0.25
366.002	0.25
366.462	0.25
366.922	0.25
367.383	0.25
367.843	0.25
368.303	0.25
368.763	0.25
369.223	0.25
369.684	0.25
370.144	0.25
370.604	0.25
371.064	0.25
371.524	0.25
371.984	0.25
372.444	0.25
372.904	0.25
373.363	0.25
373.823	0.25
374.283	0.25
374.743	0.25
375.203	0.25
375.663	0.25
376.122	0.25
376.582	0.25
377.042	0.25
377.501	0.25
377.961	0.25
378.42	0.25
378.88	0.25
379.34	0.25
379.799	0.25
380.259	0.25
380.718	0.25
381.177	0.25
381.637	0.25
382.096	0.25
382.555	0.25
383.015	0.25
383.474	0.24
383.933	0.24
384.393	0.24
384.852	0.24
385.311	0.24
385.77	0.24
386.229	0.24
386.688	0.24
387.147	0.24
387.606	0.24
388.065	0.24
388.524	0.24
388.983	0.24
389.442	0.24
389.901	0.24
390.36	0.24
390.819	0.24
391.277	0.24
391.736	0.24
392.195	0.24
392.654	0.24
393.112	0.24
393.571	0.24
394.03	0.24
394.488	0.24
394.947	0.24
395.405	0.24
395.864	0.24
396.322	0.24
396.781	0.24
397.239	0.24
397.698	0.24
398.156	0.24
398.614	0.23
399.073	0.23
399.531	0.23
399.989	0.23
400.447	0.23
400.905	0.23
401.364	0.23
401.822	0.23
402.28	0.23
402.738	0.23
403.196	0.23
403.654	0.23
404.112	0.23
404.57	0.23
405.028	0.23
405.486	0.23
405.944	0.23
406.402	0.23
406.859	0.23
407.317	0.23
407.775	0.23
408.233	0.23
408.691	0.23
409.148	0.23
409.606	0.23
410.064	0.23
410.521	0.23
410.979	0.23
411.436	0.23
411.894	0.23
412.351	0.23
412.809	0.23
413.266	0.23
413.724	0.23
414.181	0.23
414.638	0.23
415.096	0.23
415.553	0.23
416.01	0.22
416.467	0.22
416.925	0.22
417.382	0.22
417.839	0.22
418.296	0.22
418.753	0.22
419.21	0.22
419.667	0.22
420.124	0.22
420.581	0.22
421.038	0.22
421.495	0.22
421.952	0.22
422.409	0.22
422.866	0.22
423.322	0.22
423.779	0.22
424.236	0.22
424.693	0.22
425.149	0.22
425.606	0.22
426.063	0.22
426.519	0.22
426.976	0.22
427.433	0.22
427.889	0.22
428.346	0.22
428.802	0.22
429.258	0.22
429.715	0.22
430.171	0.22
430.628	0.22
431.084	0.22
431.54	0.22
431.997	0.22
432.453	0.22
432.909	0.22
433.365	0.22
433.821	0.22
434.277	0.22
434.734	0.22
435.19	0.22
435.646	0.22
436.102	0.22
436.558	0.22
437.014	0.21
437.47	0.21
437.925	0.21
438.381	0.21
438.837	0.21
439.293	0.21
439.749	0.21
440.205	0.21
440.66	0.21
441.116	0.21
441.572	0.21
442.027	0.21
442.483	0.21
442.939	0.21
443.394	0.21
443.85	0.21
444.305	0.21
444.761	0.21
445.216	0.21
445.672	0.21
446.127	0.21
446.582	0.21
447.038	0.21
447.493	0.21
447.948	0.21
448.403	0.21
448.859	0.21
449.314	0.21
449.769	0.21
450.224	0.21
450.679	0.21
451.134	0.21
451.589	0.21
452.044	0.21
452.499	0.21
452.954	0.21
453.409	0.21
453.864	0.21
454.319	0.21
454.774	0.21
455.229	0.21
455.684	0.21
456.138	0.21
456.593	0.21
457.048	0.21
457.503	0.21
457.957	0.21
458.412	0.21
458.866	0.21
459.321	0.21
459.776	0.21
460.23	0.21
460.685	0.21
461.139	0.21
461.593	0.21
462.048	0.21
462.502	0.21
462.957	0.21
463.411	0.21
463.865	0.21
464.319	0.21
464.774	0.21
465.228	0.21
465.682	0.21
466.136	0.21
466.59	0.21
467.044	0.21
467.499	0.21
467.953	0.21
468.407	0.21
468.861	0.21
469.315	0.21
469.768	0.21
470.222	0.21
470.676	0.21
471.13	0.21
471.584	0.21
472.038	0.21
472.491	0.21
472.945	0.22
473.399	0.22
473.852	0.22
474.306	0.22
474.76	0.22
475.213	0.22
475.667	0.22
476.12	0.22
476.574	0.22
477.027	0.22
477.481	0.22
477.934	0.22
478.388	0.22
478.841	0.22
479.294	0.22
479.748	0.22
480.201	0.22
480.654	0.22
481.107	0.22
481.561	0.23
482.014	0.23
482.467	0.23
482.92	0.23
483.373	0.23
483.826	0.23
484.279	0.23
484.732	0.23
485.185	0.23
485.638	0.23
486.091	0.23
486.544	0.24
486.997	0.24
487.449	0.24
487.902	0.24
488.355	0.24
488.808	0.24
489.26	0.24
489.713	0.24
490.166	0.24
490.618	0.25
491.071	0.25
491.523	0.25
491.976	0.25
492.429	0.25
492.881	0.25
493.333	0.25
493.786	0.26
494.238	0.26
494.691	0.26
495.143	0.26
495.595	0.26
496.048	0.26
496.5	0.27
496.952	0.27
497.404	0.27
497.856	0.27
498.309	0.27
498.761	0.27
499.213	0.28
499.665	0.28
500.117	0.28
500.569	0.28
501.021	0.29
501.473	0.29
501.925	0.29
502.377	0.29
502.828	0.29
503.28	0.3
503.732	0.3
504.184	0.3
504.636	0.3
505.087	0.3
505.539	0.3
505.991	0.31
506.442	0.31
506.894	0.31
507.345	0.31
507.797	0.31
508.249	0.32
508.7	0.32
509.151	0.32
509.603	0.32
510.054	0.32
510.506	0.33
510.957	0.33
511.408	0.33
511.86	0.33
512.311	0.33
512.762	0.33
513.213	0.33
513.665	0.34
514.116	0.34
514.567	0.34
515.018	0.34
515.469	0.34
515.92	0.34
516.371	0.35
516.822	0.35
517.273	0.35
517.724	0.35
518.175	0.35
518.626	0.35
519.076	0.35
519.527	0.35
519.978	0.35
520.429	0.36
520.88	0.36
521.33	0.36
521.781	0.36
522.232	0.36
522.682	0.36
523.133	0.36
523.583	0.36
524.034	0.36
524.484	0.36
524.935	0.36
525.385	0.36
525.836	0.36
526.286	0.36
526.736	0.36
527.187	0.36
527.637	0.36
528.087	0.36
528.538	0.36
528.988	0.36
529.438	0.36
529.888	0.36
530.338	0.36
530.788	0.36
531.238	0.36
531.688	0.36
532.139	0.36
532.589	0.36
533.038	0.36
533.488	0.36
533.938	0.36
534.388	0.36
534.838	0.36
535.288	0.36
535.738	0.36
536.187	0.36
536.637	0.35
537.087	0.35
537.537	0.35
537.986	0.35
538.436	0.35
538.885	0.35
539.335	0.35
539.785	0.35
540.234	0.35
540.684	0.35
541.133	0.34
541.582	0.34
542.032	0.34
542.481	0.34
542.931	0.34
543.38	0.34
543.829	0.34
544.278	0.33
544.728	0.33
545.177	0.33
545.626	0.33
546.075	0.33
546.524	0.33
546.973	0.32
547.422	0.32
547.871	0.32
548.32	0.32
548.769	0.32
549.218	0.32
549.667	0.31
550.116	0.31
550.565	0.31
551.014	0.31
551.463	0.31
551.911	0.3
552.36	0.3
552.809	0.3
553.258	0.3
553.706	0.3
554.155	0.29
554.603	0.29
555.052	0.29
555.501	0.29
555.949	0.29
556.398	0.28
556.846	0.28
557.294	0.28
557.743	0.28
558.191	0.28
558.64	0.28
559.088	0.27
559.536	0.27
559.985	0.27
560.433	0.27
560.881	0.27
561.329	0.27
561.777	0.26
562.225	0.26
562.674	0.26
563.122	0.26
563.57	0.26
564.018	0.25
564.466	0.25
564.914	0.25
565.362	0.25
565.809	0.25
566.257	0.24
566.705	0.24
567.153	0.24
567.601	0.24
568.048	0.24
568.496	0.23
568.944	0.23
569.392	0.23
569.839	0.23
570.287	0.23
570.734	0.23
571.182	0.22
571.63	0.22
572.077	0.22
572.525	0.22
572.972	0.22
573.419	0.21
573.867	0.21
574.314	0.21
574.761	0.21
575.209	0.21
575.656	0.21
576.103	0.2
576.551	0.2
576.998	0.2
577.445	0.2
577.892	0.2
578.339	0.2
578.786	0.2
579.233	0.19
579.68	0.19
580.127	0.19
580.574	0.19
581.021	0.19
581.468	0.18
581.915	0.18
582.362	0.18
582.809	0.18
583.255	0.18
583.702	0.18
584.149	0.17
584.596	0.17
585.042	0.17
585.489	0.17
585.936	0.17
586.382	0.17
586.829	0.17
587.275	0.16
587.722	0.16
588.168	0.16
588.615	0.16
589.061	0.16
589.508	0.16
589.954	0.16
590.4	0.16
590.847	0.16
591.293	0.15
591.739	0.15
592.185	0.15
592.632	0.15
593.078	0.15
593.524	0.15
593.97	0.15
594.416	0.15
594.862	0.15
595.308	0.14
595.754	0.14
596.2	0.14
596.646	0.14
597.092	0.14
597.538	0.14
597.984	0.14
598.43	0.14
598.876	0.14
599.321	0.14
599.767	0.13
600.213	0.13
600.659	0.13
601.104	0.13
601.55	0.13
601.995	0.13
602.441	0.13
602.887	0.13
603.332	0.13
603.778	0.13
604.223	0.13
604.668	0.13
605.114	0.13
605.559	0.13
606.005	0.12
606.45	0.12
606.895	0.12
607.341	0.12
607.786	0.12
608.231	0.12
608.676	0.12
609.121	0.12
609.566	0.12
610.012	0.12
610.457	0.12
610.902	0.12
611.347	0.12
611.792	0.12
612.237	0.12
612.682	0.12
613.127	0.12
613.571	0.12
614.016	0.12
614.461	0.12
614.906	0.12
615.351	0.12
615.795	0.12
616.24	0.12
616.685	0.12
617.129	0.12
617.574	0.12
618.019	0.12
618.463	0.12
618.908	0.12
619.352	0.12
619.797	0.12
620.241	0.12
620.686	0.12
621.13	0.12
621.574	0.12
622.019	0.12
622.463	0.12
622.907	0.12
623.352	0.12
623.796	0.12
624.24	0.12
624.684	0.12
625.128	0.12
625.572	0.12
626.016	0.12
626.461	0.12
626.905	0.12
627.349	0.12
627.793	0.12
628.236	0.12
628.68	0.12
629.124	0.12
629.568	0.12
630.012	0.12
630.456	0.12
630.9	0.12
631.343	0.13
631.787	0.13
632.231	0.13
632.674	0.13
633.118	0.13
633.562	0.13
634.005	0.13
634.449	0.13
634.892	0.13
635.336	0.14
635.779	0.14
636.223	0.14
636.666	0.14
637.109	0.14
637.553	0.14
637.996	0.14
638.439	0.14
638.883	0.15
639.326	0.15
639.769	0.15
640.212	0.15
640.655	0.15
641.099	0.15
641.542	0.15
641.985	0.16
642.428	0.16
642.871	0.16
643.314	0.16
643.757	0.16
644.2	0.17
644.643	0.17
645.085	0.17
645.528	0.17
645.971	0.17
646.414	0.18
646.857	0.18
647.299	0.18
647.742	0.18
648.185	0.19
648.627	0.19
649.07	0.19
649.513	0.19
649.955	0.2
650.398	0.2
650.84	0.2
651.283	0.2
651.725	0.21
652.168	0.21
652.61	0.21
653.052	0.22
653.495	0.22
653.937	0.17
654.379	0.14
654.821	0.14
655.264	0.14
655.706	0.14
656.148	0.15
656.59	0.15
657.032	0.15
657.474	0.15
657.916	0.15
658.358	0.15
658.8	0.19
659.242	0.25
659.684	0.26
660.126	0.26
660.568	0.26
661.01	0.26
661.452	0.27
661.894	0.27
662.335	0.27
662.777	0.27
663.219	0.28
663.661	0.28
664.102	0.28
664.544	0.29
664.985	0.29
665.427	0.29
665.869	0.29
666.31	0.3
666.752	0.3
667.193	0.3
667.634	0.3
668.076	0.31
668.517	0.31
668.959	0.31
669.4	0.31
669.841	0.32
670.282	0.32
670.724	0.32
671.165	0.32
671.606	0.32
672.047	0.33
672.488	0.33
672.929	0.33
673.37	0.33
673.811	0.33
674.252	0.34
674.693	0.34
675.134	0.34
675.575	0.34
676.016	0.34
676.457	0.35
676.898	0.35
677.339	0.35
677.78	0.35
678.22	0.35
678.661	0.35
679.102	0.35
679.542	0.35
679.983	0.35
680.424	0.36
680.864	0.36
681.305	0.36
681.745	0.36
682.186	0.36
682.626	0.36
683.067	0.36
683.507	0.36
683.948	0.36
684.388	0.36
684.828	0.36
685.269	0.36
685.709	0.36
686.149	0.36
686.589	0.36
687.029	0.36
687.47	0.36
687.91	0.36
688.35	0.36
688.79	0.36
689.23	0.36
689.67	0.36
690.11	0.36
690.55	0.36
690.99	0.36
691.43	0.36
691.87	0.36
692.31	0.35
692.749	0.35
693.189	0.35
693.629	0.35
694.069	0.35
694.508	0.35
694.948	0.35
695.388	0.35
695.827	0.35
696.267	0.35
696.706	0.35
697.146	0.34
697.586	0.34
698.025	0.34
698.464	0.34
698.904	0.34
699.343	0.34
699.783	0.34
700.222	0.33
700.661	0.33
701.101	0.33
701.54	0.33
701.979	0.33
702.418	0.33
702.857	0.33
703.297	0.32
703.736	0.32
704.175	0.32
704.614	0.32
705.053	0.32
705.492	0.31
705.931	0.31
706.37	0.31
706.809	0.31
707.248	0.31
707.687	0.3
708.125	0.3
708.564	0.3
709.003	0.3
709.442	0.3
709.88	0.29
710.319	0.29
710.758	0.29
711.196	0.29
711.635	0.28
712.074	0.28
712.512	0.28
712.951	0.28
713.389	0.28
713.828	0.27
714.266	0.27
714.705	0.27
715.143	0.27
715.581	0.27
716.02	0.26
716.458	0.26
716.896	0.26
717.334	0.26
717.773	0.26
718.211	0.25
718.649	0.25
719.087	0.25
719.525	0.25
719.963	0.25
720.401	0.24
720.839	0.24
721.277	0.24
721.715	0.24
722.153	0.24
722.591	0.23
723.029	0.23
723.467	0.23
723.905	0.23
724.342	0.23
724.78	0.23
725.218	0.22
725.656	0.22
726.093	0.22
726.531	0.22
726.969	0.22
727.406	0.22
727.844	0.21
728.281	0.21
728.719	0.21
729.156	0.21
729.594	0.21
730.031	0.2
730.469	0.2
730.906	0.2
731.343	0.2
731.781	0.2
732.218	0.2
732.655	0.19
733.092	0.19
733.53	0.19
733.967	0.19
734.404	0.19
734.841	0.18
735.278	0.18
735.715	0.18
736.152	0.18
736.589	0.18
737.026	0.17
737.463	0.17
737.9	0.17
738.337	0.17
738.774	0.17
739.211	0.16
739.647	0.16
740.084	0.16
740.521	0.16
740.958	0.16
741.394	0.16
741.831	0.15
742.268	0.15
742.704	0.15
743.141	0.15
743.577	0.15
744.014	0.15
744.45	0.14
744.887	0.14
745.323	0.14
745.76	0.14
746.196	0.14
746.632	0.14
747.069	0.13
747.505	0.13
747.941	0.13
748.378	0.13
748.814	0.13
749.25	0.13
749.686	0.13
750.122	0.13
750.558	0.13
750.994	0.13
751.43	0.12
751.866	0.12
752.302	0.12
752.738	0.12
753.174	0.12
753.61	0.12
754.046	0.11
754.482	0.11
754.918	0.11
755.354	0.11
755.789	0.11
756.225	0.1
756.661	0.1
757.096	0.1
757.532	0.1
757.968	0.1
758.403	0.1
758.839	0.1
759.274	0.1
759.71	0.1
760.145	0.1
760.581	0.1
761.016	0.1
761.452	0.09
761.887	0.09
762.322	0.09
762.758	0.09
763.193	0.09
763.628	0.09
764.063	0.08
764.499	0.08
764.934	0.08
765.369	0.08
765.804	0.08
766.239	0.08
766.674	0.08
767.109	0.07
767.544	0.07
767.979	0.07
768.414	0.07
768.849	0.06
769.284	0.06
769.719	0.06
770.154	0.06
770.588	0.05
771.023	0.05
771.458	0.05
771.893	0.04
772.327	0.04
772.762	0.04
773.197	0.04
773.631	0.03
774.066	0.03
774.5	0.03
774.935	0.03
775.369	0.02
775.804	0.02
776.238	0.02
776.673	0.02
777.107	0.01
777.541	0.01
777.976	0.01
778.41	0
778.844	0
779.279	0
779.713	-0
780.147	-0.01
780.581	-0.01
781.015	-0.01
781.449	-0.02
781.883	-0.02
782.317	-0.02
782.751	-0.03
783.185	-0.03
783.619	-0.03
784.053	-0.04
784.487	-0.04
784.921	-0.05
785.355	-0.05
785.789	-0.05
786.223	-0.06
786.656	-0.06
787.09	-0.06
787.524	-0.07
787.957	-0.07
788.391	-0.08
788.825	-0.08
789.258	-0.09
789.692	-0.09
790.125	-0.1
790.559	-0.11
790.992	-0.11
791.426	-0.12
791.859	-0.11
792.293	-0.11
792.726	-0.1
793.159	-0.1
793.593	-0.1
794.026	-0.1
794.459	-0.11
794.892	-0.11
795.326	-0.11
795.759	-0.11
796.192	-0.11
796.625	-0.12
797.058	-0.13
797.491	-0.14
797.924	-0.15
798.357	-0.15
798.79	-0.15
799.223	-0.15
799.656	-0.15
800.089	-0.15
800.522	-0.15
800.955	-0.16
801.387	-0.15
801.82	-0.16
802.253	-0.16
802.686	-0.16
803.118	-0.16
803.551	-0.16
803.984	-0.15
804.416	-0.15
804.849	-0.14
805.281	-0.14
805.714	-0.14
806.146	-0.14
806.579	-0.13
807.011	-0.13
807.444	-0.13
807.876	-0.13
808.308	-0.13
808.741	-0.14
809.173	-0.14
809.605	-0.15
810.037	-0.15
810.47	-0.15
810.902	-0.16
811.334	-0.16
811.766	-0.16
812.198	-0.15
812.63	-0.15
813.062	-0.15
813.494	-0.14
813.926	-0.14
814.358	-0.14
814.79	-0.13
815.222	-0.12
815.654	-0.11
816.086	-0.1
816.518	-0.09
816.949	-0.09
817.381	-0.08
817.813	-0.07
818.245	-0.07
818.676	-0.06
819.108	-0.05
819.54	-0.05
819.971	-0.04
820.403	-0.04
820.834	-0.03
821.266	-0.03
821.697	-0.03
822.129	-0.02
822.56	-0.02
822.991	-0.02
823.423	-0.02
823.854	-0.01
824.286	-0.01
824.717	-0.01
825.148	-0.01
825.579	-0.01
826.01	-0.01
826.442	-0.01
826.873	-0
827.304	-0
827.735	-0
828.166	-0
828.597	-0
829.028	0
829.459	0
829.89	0
830.321	0
830.752	0
831.183	0
831.613	0
832.044	0
832.475	0.01
832.906	0.01
833.336	0.01
833.767	0.01
834.198	0.01
834.628	0.01
835.059	0.01
835.49	0.01
835.92	0.01
836.351	0.01
836.781	0.01
837.212	0.01
837.642	0.01
838.072	0.01
838.503	0.01
838.933	0.01
839.364	0.01
839.794	0.01
840.224	0.01
840.654	0.01
841.085	0.01
841.515	0.01
841.945	0.01
842.375	0.01
842.805	0.01
843.235	0.01
843.665	0.01
844.095	0.01
844.525	0.01
844.955	0.01
845.385	0.01
845.815	0.01
846.245	0.01
846.675	0.01
847.105	0.01
847.534	0.01
847.964	0.01
848.394	0.01
848.824	0.01
849.253	0.01
849.683	0.01
850.112	0.01
850.542	0.01
850.972	0.01
851.401	0.01
851.831	0.01
852.26	0.01
852.69	0.01
853.119	0.01
853.548	0.01
853.978	0.01
854.407	0.01
854.836	0.01
855.266	0.01
855.695	0.01
856.124	0.01
856.553	0.01
856.983	0.01
857.412	0.01
857.841	0.01
858.27	0.01
858.699	0.01
859.128	0.01
859.557	0.01
859.986	0.01
860.415	0.01
860.844	0.01
861.273	0.01
861.702	0.01
862.13	0.01
862.559	0.01
862.988	0.01
863.417	0.01
863.845	0.01
864.274	0.01
864.703	0.01
865.131	0.01
865.56	0.01
865.989	0.01
866.417	0.01
866.846	0.01
867.274	0.01
867.703	0.01
868.131	0.01
868.559	0.01
868.988	0.01
869.416	0.01
869.844	0.01
870.273	0.01
870.701	0
871.129	0
871.557	0
871.986	0
872.414	0
872.842	0
873.27	0
873.698	0
874.126	0
874.554	0
874.982	0
875.41	0
875.838	0
876.266	0
876.694	0
877.122	0
877.549	0
877.977	-0
878.405	-0
878.833	-0
879.26	-0
879.688	-0
880.116	-0
880.543	-0
880.971	-0
881.399	-0
881.826	-0
882.254	-0
882.681	-0
883.109	-0
883.536	-0
883.963	0
884.391	0
884.818	0
885.245	0
885.673	0
886.1	0
886.527	0
886.954	0
887.381	0
887.809	0
888.236	0
888.663	0
889.09	0.01
889.517	0.01
889.944	0.01
890.371	0.01
890.798	0.01
891.225	0
891.652	0
892.078	0
892.505	0
892.932	0
893.359	0
893.786	0
894.212	-0
894.639	-0
895.066	-0
895.492	-0
895.919	-0
896.346	-0
896.772	-0.01
897.199	-0.01
897.625	-0.01
898.052	-0.01
898.478	-0.01
898.904	-0.01
899.331	-0.01
899.757	-0.01
900.183	-0.01
900.61	-0.01
901.036	-0.01
901.462	-0.01
901.888	-0.01
902.315	-0.01
902.741	-0.01
903.167	-0.01
903.593	-0.01
904.019	-0.01
904.445	-0.01
904.871	-0.01
905.297	-0.01
905.723	-0.01
906.149	-0
906.575	-0
907.001	-0
907.427	-0
907.852	-0
908.278	-0
908.704	-0
909.13	-0
909.555	-0
909.981	-0
910.407	-0
910.832	-0
911.258	-0
911.684	-0
912.109	-0
912.535	-0
912.96	-0
913.386	-0
913.811	-0
914.236	-0.01
914.662	-0.01
915.087	-0.01
915.512	-0.01
915.938	-0.01
916.363	-0.01
916.788	-0.01
917.213	-0.01
917.639	-0.01
918.064	-0.01
918.489	-0.01
918.914	-0.01
919.339	-0.01
919.764	-0.01
920.189	-0.01
920.614	-0.01
921.039	-0
921.464	-0
921.889	-0
922.314	-0
922.738	-0
923.163	-0
923.588	0
924.013	0
924.437	0
924.862	0
925.287	0
925.711	0
926.136	0
926.561	0
926.985	0
927.41	-0
927.834	-0
928.259	-0
928.683	-0
929.108	-0
929.532	-0
929.956	-0
930.381	-0
930.805	-0
931.229	-0
931.653	-0
932.078	-0
932.502	-0.01
932.926	-0.01
933.35	-0.01
933.774	-0.01
934.198	-0.01
934.622	-0.01
935.046	-0.01
935.47	-0.01
935.894	-0.01
936.318	-0.01
936.742	-0.01
937.166	-0.01
937.59	-0.01
938.014	-0.01
938.437	-0.01
938.861	-0.01
939.285	-0.01
939.709	-0.01
940.132	-0.01
940.556	-0.01
940.98	-0.01
941.403	-0.01
941.827	-0.01
942.25	-0.01
942.674	-0.01
943.097	-0.01
943.521	-0.02
943.944	-0.02
944.368	-0.02
944.791	-0.02
945.214	-0.02
945.638	-0.02
946.061	-0.02
946.484	-0.02
946.907	-0.02
947.331	-0.02
947.754	-0.02
948.177	-0.02
948.6	-0.02
949.023	-0.02
949.446	-0.02
949.869	-0.02
950.292	-0.02
950.715	-0.02
951.138	-0.02
951.561	-0.02
951.984	-0.02
952.407	-0.02
952.83	-0.02
953.252	-0.02
953.675	-0.02
954.098	-0.02
954.521	-0.02
954.943	-0.02
955.366	-0.02
955.789	-0.02
956.211	-0.02
956.634	-0.02
957.056	-0.02
957.479	-0.02
957.902	-0.01
958.324	-0.01
958.746	-0.01
959.169	-0.01
959.591	-0.01
960.014	-0.01
960.436	-0.01
960.858	-0.01
961.281	-0.01
961.703	-0
962.125	-0
962.547	-0
962.969	-0
963.391	-0
963.814	-0
964.236	-0
964.658	-0
965.08	-0
965.502	-0
965.924	-0
966.346	-0
966.768	-0
967.189	-0
967.611	-0
968.033	-0
968.455	-0
968.877	-0.01
969.298	-0.01
969.72	-0.01
970.142	-0.01
970.563	-0.01
970.985	-0.01
971.407	-0.01
971.828	-0.01
972.25	-0.01
972.671	-0.01
973.093	-0.01
973.514	-0.01
973.936	-0.01
974.357	-0.01
974.778	-0.01
975.2	-0.01
975.621	-0.01
976.042	-0.01
976.464	-0.01
976.885	-0.01
977.306	-0.01
977.727	-0.01
978.148	-0.01
978.57	-0.01
978.991	-0.01
979.412	-0.01
979.833	-0.01
980.254	-0.01
980.675	-0
981.096	-0
981.517	-0
981.937	-0
982.358	-0
982.779	-0.01
983.2	-0.01
983.621	-0.01
984.042	-0.01
984.462	-0.01
984.883	-0.01
985.304	-0.01
985.724	-0.01
986.145	-0.01
986.565	-0.01
986.986	-0.01
987.407	-0.01
987.827	-0.01
988.248	-0.01
988.668	-0.01
989.088	-0.01
989.509	-0.01
989.929	-0.01
990.35	-0.01
990.77	-0.01
991.19	-0.02
991.61	-0.02
992.031	-0.02
992.451	-0.02
992.871	-0.02
993.291	-0.02
993.711	-0.02
994.131	-0.02
994.551	-0.02
994.971	-0.02
995.391	-0.02
995.811	-0.02
996.231	-0.02
996.651	-0.02
997.071	-0.02
997.491	-0.02
997.911	-0.02
998.331	-0.01
998.75	-0.01
999.17	-0.01
999.59	-0.01
1000.009	-0.01
1000.429	-0.01
1000.849	-0.01
1001.268	-0.01
1001.688	-0.01
1002.107	-0.01
1002.527	-0.01
1002.946	-0.01
1003.366	-0.01
1003.785	-0.01
1004.205	-0.01
1004.624	-0.01
1005.044	-0.01
1005.463	-0.01
1005.882	-0.01
1006.301	-0.01
1006.721	-0.01
1007.14	-0.01
1007.559	-0.01
1007.978	-0.02
1008.397	-0.02
1008.816	-0.02
1009.235	-0.02
1009.655	-0.02
1010.074	-0.02
1010.492	-0.02
1010.911	-0.02
1011.33	-0.02
1011.749	-0.02
1012.168	-0.02
1012.587	-0.02
1013.006	-0.02
1013.425	-0.02
1013.843	-0.02
1014.262	-0.02
1014.681	-0.02
1015.099	-0.02
1015.518	-0.02
1015.937	-0.02
1016.355	-0.02
1016.774	-0.02
1017.192	-0.02
1017.611	-0.02
1018.029	-0.02
1018.448	-0.02
1018.866	-0.02
1019.285	-0.02
1019.703	-0.02
1020.121	-0.02
1020.54	-0.02
1020.958	-0.02
1021.376	-0.02
1021.794	-0.02
1022.213	-0.02
1022.631	-0.02
1023.049	-0.02
1023.467	-0.02
1023.885	-0.02
1024.303	-0.02
1024.721	-0.02
1025.139	-0.02
1025.557	-0.02
1025.975	-0.02
1026.393	-0.02
1026.811	-0.02
1027.229	-0.02
1027.647	-0.02
1028.065	-0.02
1028.482	-0.02
1028.9	-0.02
1029.318	-0.02
1029.735	-0.02
1030.153	-0.02
1030.571	-0.02
1030.988	-0.02
1031.406	-0.02
1031.823	-0.02
1032.241	-0.02
1032.659	-0.02
1033.076	-0.02
1033.493	-0.02
1033.911	-0.02
1034.328	-0.02
1034.746	-0.02
1035.163	-0.02
1035.58	-0.02
1035.997	-0.02
1036.415	-0.02
1036.832	-0.02
1037.249	-0.02
1037.666	-0.02
1038.083	-0.02
1038.501	-0.02
1038.918	-0.02
1039.335	-0.02
1039.752	-0.02
1040.169	-0.02
1040.586	-0.02
1041.003	-0.02
1041.419	-0.01
1041.836	-0.01
1042.253	-0.01
1042.67	-0.01
1043.087	-0.02
1043.504	-0.02
1043.92	-0.02
1044.337	-0.02
1044.754	-0.02
1045.17	-0.02
1045.587	-0.02
1046.004	-0.02
1046.42	-0.02
1046.837	-0.02
1047.253	-0.02
1047.67	-0.02
1048.086	-0.02
1048.503	-0.02
1048.919	-0.02
1049.335	-0.02
1049.752	-0.02
1050.168	-0.02
1050.584	-0.02
1051.001	-0.02
1051.417	-0.02
1051.833	-0.02
1052.249	-0.02
1052.665	-0.02
1053.081	-0.02
1053.497	-0.02
1053.914	-0.02
1054.33	-0.02
1054.746	-0.02
1055.162	-0.02
1055.578	-0.02
1055.993	-0.02
1056.409	-0.02
1056.825	-0.02
1057.241	-0.02
1057.657	-0.03
1058.073	-0.03
1058.488	-0.03
1058.904	-0.03
1059.32	-0.03
1059.736	-0.03
1060.151	-0.03
1060.567	-0.03
1060.982	-0.03
1061.398	-0.03
1061.813	-0.03
1062.229	-0.03
1062.644	-0.03
1063.06	-0.03
1063.475	-0.03
1063.891	-0.03
1064.306	-0.03
1064.721	-0.03
1065.137	-0.03
1065.552	-0.03
1065.967	-0.03
1066.382	-0.03
1066.798	-0.03
1067.213	-0.03
1067.628	-0.03
1068.043	-0.03
1068.458	-0.03
1068.873	-0.03
1069.288	-0.03
1069.703	-0.03
1070.118	-0.03
1070.533	-0.03
1070.948	-0.03
1071.363	-0.03
1071.778	-0.03
1072.193	-0.03
1072.607	-0.03
1073.022	-0.03
1073.437	-0.03
1073.852	-0.03
1074.266	-0.03
1074.681	-0.03
1075.096	-0.03
1075.51	-0.04
1075.925	-0.04
1076.339	-0.04
1076.754	-0.04
1077.168	-0.04
1077.583	-0.04
1077.997	-0.04
1078.412	-0.04
1078.826	-0.04
1079.24	-0.04
1079.655	-0.04
1080.069	-0.04
1080.483	-0.04
1080.897	-0.04
1081.312	-0.04
1081.726	-0.04
1082.14	-0.04
1082.554	-0.04
1082.968	-0.04
1083.382	-0.04
1083.796	-0.04
1084.21	-0.03
1084.624	-0.03
1085.038	-0.03
1085.452	-0.03
1085.866	-0.03
1086.28	-0.03
1086.694	-0.03
1087.108	-0.03
1087.521	-0.03
1087.935	-0.03
1088.349	-0.03
1088.763	-0.03
1089.176	-0.03
1089.59	-0.03
1090.004	-0.04
1090.417	-0.04
1090.831	-0.04
1091.244	-0.04
1091.658	-0.04
1092.071	-0.04
1092.485	-0.04
1092.898	-0.04
1093.312	-0.04
1093.725	-0.04
1094.138	-0.04
1094.552	-0.04
1094.965	-0.04
1095.378	-0.04
1095.791	-0.04
1096.205	-0.04
1096.618	-0.04
1097.031	-0.04
1097.444	-0.04
1097.857	-0.05
1098.27	-0.05
1098.683	-0.05
1099.096	-0.05
1099.509	-0.05
1099.922	-0.05
1100.335	-0.05
1100.748	-0.05
1101.161	-0.05
1101.574	-0.05
1101.986	-0.05
1102.399	-0.05
1102.812	-0.05
1103.225	-0.05
1103.637	-0.05
1104.05	-0.05
1104.463	-0.06
1104.875	-0.06
1105.288	-0.06
1105.7	-0.06
1106.113	-0.06
1106.525	-0.06
1106.938	-0.07
1107.35	-0.07
1107.763	-0.07
1108.175	-0.07
1108.588	-0.07
1109	-0.07
1109.412	-0.07
1109.824	-0.07
1110.237	-0.07
1110.649	-0.08
1111.061	-0.07
