Data from disp-4_Absorbance__0__11-18-21-554.txt Node

Date: Thu Feb 22 11:18:21 CET 2024
User: Laser008
Spectrometer: MAYP115816
Trigger mode: 0
Integration Time (sec): 1.800000E-1
Scans to average: 10
Electric dark correction enabled: true
Nonlinearity correction enabled: true
Boxcar width: 5
XAxis mode: Wavelengths
Number of Pixels in Spectrum: 2068
>>>>>Begin Spectral Data<<<<<
198.914	-0.51
199.384	-0.48
199.855	-0.41
200.325	-0.34
200.796	-0.3
201.266	-0.28
201.737	-0.26
202.207	-0.25
202.677	-0.25
203.147	-0.24
203.618	-0.22
204.088	-0.2
204.558	-0.19
205.028	-0.18
205.498	-0.19
205.968	-0.19
206.439	-0.19
206.909	-0.19
207.379	-0.19
207.849	-0.19
208.319	-0.19
208.789	-0.19
209.258	-0.2
209.728	-0.2
210.198	-0.2
210.668	-0.19
211.138	-0.2
211.608	-0.2
212.077	-0.2
212.547	-0.2
213.017	-0.2
213.486	-0.2
213.956	-0.2
214.426	-0.2
214.895	-0.2
215.365	-0.2
215.834	-0.2
216.304	-0.21
216.773	-0.2
217.243	-0.2
217.712	-0.2
218.181	-0.2
218.651	-0.2
219.12	-0.2
219.589	-0.2
220.058	-0.2
220.528	-0.2
220.997	-0.2
221.466	-0.19
221.935	-0.19
222.404	-0.19
222.873	-0.19
223.342	-0.18
223.812	-0.18
224.281	-0.18
224.749	-0.17
225.218	-0.16
225.687	-0.16
226.156	-0.15
226.625	-0.13
227.094	-0.13
227.563	-0.11
228.031	-0.1
228.5	-0.08
228.969	-0.06
229.438	-0.04
229.906	-0.02
230.375	0.01
230.844	0.04
231.312	0.07
231.781	0.09
232.249	0.13
232.718	0.16
233.186	0.19
233.655	0.22
234.123	0.25
234.591	0.28
235.06	0.3
235.528	0.33
235.996	0.35
236.465	0.38
236.933	0.4
237.401	0.42
237.869	0.43
238.337	0.45
238.805	0.47
239.274	0.48
239.742	0.49
240.21	0.5
240.678	0.51
241.146	0.52
241.614	0.52
242.081	0.53
242.549	0.54
243.017	0.54
243.485	0.55
243.953	0.55
244.421	0.56
244.888	0.56
245.356	0.56
245.824	0.57
246.291	0.57
246.759	0.57
247.227	0.58
247.694	0.58
248.162	0.58
248.629	0.59
249.097	0.59
249.564	0.59
250.032	0.6
250.499	0.6
250.967	0.6
251.434	0.6
251.901	0.61
252.369	0.61
252.836	0.61
253.303	0.61
253.77	0.61
254.237	0.62
254.705	0.62
255.172	0.62
255.639	0.62
256.106	0.62
256.573	0.62
257.04	0.62
257.507	0.62
257.974	0.62
258.441	0.62
258.908	0.62
259.375	0.62
259.841	0.62
260.308	0.62
260.775	0.62
261.242	0.62
261.709	0.62
262.175	0.62
262.642	0.62
263.109	0.62
263.575	0.62
264.042	0.62
264.508	0.62
264.975	0.62
265.441	0.61
265.908	0.61
266.374	0.61
266.841	0.61
267.307	0.61
267.773	0.6
268.24	0.6
268.706	0.6
269.172	0.6
269.639	0.59
270.105	0.59
270.571	0.59
271.037	0.58
271.503	0.58
271.969	0.58
272.435	0.58
272.902	0.57
273.368	0.57
273.834	0.57
274.3	0.57
274.765	0.56
275.231	0.56
275.697	0.56
276.163	0.55
276.629	0.55
277.095	0.55
277.56	0.54
278.026	0.54
278.492	0.54
278.958	0.53
279.423	0.53
279.889	0.52
280.354	0.52
280.82	0.52
281.286	0.51
281.751	0.51
282.217	0.5
282.682	0.5
283.147	0.5
283.613	0.5
284.078	0.49
284.544	0.49
285.009	0.49
285.474	0.48
285.939	0.48
286.405	0.48
286.87	0.47
287.335	0.47
287.8	0.47
288.265	0.47
288.73	0.46
289.195	0.46
289.66	0.46
290.125	0.46
290.59	0.45
291.055	0.45
291.52	0.45
291.985	0.45
292.45	0.44
292.915	0.44
293.38	0.44
293.844	0.44
294.309	0.44
294.774	0.43
295.239	0.43
295.703	0.43
296.168	0.43
296.632	0.43
297.097	0.43
297.562	0.42
298.026	0.42
298.491	0.42
298.955	0.42
299.419	0.42
299.884	0.42
300.348	0.42
300.813	0.41
301.277	0.41
301.741	0.41
302.205	0.41
302.67	0.41
303.134	0.41
303.598	0.41
304.062	0.4
304.526	0.4
304.99	0.4
305.454	0.4
305.919	0.4
306.383	0.4
306.847	0.4
307.31	0.4
307.774	0.4
308.238	0.39
308.702	0.39
309.166	0.39
309.63	0.39
310.094	0.39
310.557	0.39
311.021	0.39
311.485	0.39
311.948	0.39
312.412	0.38
312.876	0.38
313.339	0.38
313.803	0.38
314.266	0.38
314.73	0.38
315.193	0.38
315.657	0.38
316.12	0.38
316.584	0.38
317.047	0.37
317.51	0.37
317.973	0.37
318.437	0.37
318.9	0.37
319.363	0.37
319.826	0.37
320.29	0.37
320.753	0.37
321.216	0.37
321.679	0.36
322.142	0.36
322.605	0.36
323.068	0.36
323.531	0.36
323.994	0.36
324.457	0.36
324.92	0.36
325.382	0.36
325.845	0.36
326.308	0.35
326.771	0.35
327.233	0.35
327.696	0.35
328.159	0.35
328.622	0.35
329.084	0.35
329.547	0.35
330.009	0.35
330.472	0.35
330.934	0.35
331.397	0.35
331.859	0.34
332.322	0.34
332.784	0.34
333.246	0.34
333.709	0.34
334.171	0.34
334.633	0.34
335.096	0.34
335.558	0.34
336.02	0.34
336.482	0.34
336.944	0.34
337.406	0.34
337.868	0.33
338.331	0.33
338.793	0.33
339.255	0.33
339.717	0.33
340.178	0.33
340.64	0.33
341.102	0.33
341.564	0.33
342.026	0.33
342.488	0.33
342.949	0.33
343.411	0.33
343.873	0.33
344.335	0.33
344.796	0.33
345.258	0.33
345.719	0.33
346.181	0.33
346.643	0.32
347.104	0.32
347.566	0.32
348.027	0.32
348.488	0.32
348.95	0.32
349.411	0.32
349.873	0.32
350.334	0.32
350.795	0.32
351.256	0.32
351.718	0.32
352.179	0.32
352.64	0.32
353.101	0.32
353.562	0.32
354.023	0.32
354.484	0.32
354.945	0.32
355.406	0.32
355.867	0.32
356.328	0.32
356.789	0.32
357.25	0.32
357.711	0.32
358.172	0.32
358.633	0.32
359.093	0.32
359.554	0.32
360.015	0.32
360.476	0.32
360.936	0.32
361.397	0.32
361.858	0.32
362.318	0.32
362.779	0.32
363.239	0.32
363.7	0.31
364.16	0.31
364.621	0.31
365.081	0.31
365.541	0.31
366.002	0.31
366.462	0.31
366.922	0.31
367.383	0.31
367.843	0.31
368.303	0.31
368.763	0.31
369.223	0.31
369.684	0.31
370.144	0.31
370.604	0.31
371.064	0.31
371.524	0.31
371.984	0.31
372.444	0.31
372.904	0.31
373.363	0.31
373.823	0.31
374.283	0.31
374.743	0.31
375.203	0.31
375.663	0.31
376.122	0.31
376.582	0.31
377.042	0.31
377.501	0.31
377.961	0.31
378.42	0.31
378.88	0.31
379.34	0.31
379.799	0.31
380.259	0.3
380.718	0.3
381.177	0.3
381.637	0.3
382.096	0.3
382.555	0.3
383.015	0.3
383.474	0.3
383.933	0.3
384.393	0.3
384.852	0.3
385.311	0.3
385.77	0.3
386.229	0.3
386.688	0.3
387.147	0.3
387.606	0.3
388.065	0.3
388.524	0.3
388.983	0.3
389.442	0.3
389.901	0.3
390.36	0.3
390.819	0.3
391.277	0.3
391.736	0.3
392.195	0.3
392.654	0.3
393.112	0.3
393.571	0.3
394.03	0.3
394.488	0.3
394.947	0.3
395.405	0.3
395.864	0.29
396.322	0.29
396.781	0.29
397.239	0.29
397.698	0.29
398.156	0.29
398.614	0.29
399.073	0.29
399.531	0.29
399.989	0.29
400.447	0.29
400.905	0.29
401.364	0.29
401.822	0.29
402.28	0.29
402.738	0.29
403.196	0.29
403.654	0.29
404.112	0.29
404.57	0.29
405.028	0.29
405.486	0.29
405.944	0.29
406.402	0.29
406.859	0.29
407.317	0.29
407.775	0.29
408.233	0.29
408.691	0.29
409.148	0.29
409.606	0.29
410.064	0.29
410.521	0.29
410.979	0.29
411.436	0.29
411.894	0.28
412.351	0.28
412.809	0.28
413.266	0.28
413.724	0.28
414.181	0.28
414.638	0.28
415.096	0.28
415.553	0.28
416.01	0.28
416.467	0.28
416.925	0.28
417.382	0.28
417.839	0.28
418.296	0.28
418.753	0.28
419.21	0.28
419.667	0.28
420.124	0.28
420.581	0.28
421.038	0.28
421.495	0.28
421.952	0.28
422.409	0.28
422.866	0.28
423.322	0.28
423.779	0.28
424.236	0.28
424.693	0.28
425.149	0.28
425.606	0.28
426.063	0.28
426.519	0.28
426.976	0.28
427.433	0.28
427.889	0.28
428.346	0.28
428.802	0.28
429.258	0.28
429.715	0.28
430.171	0.28
430.628	0.28
431.084	0.28
431.54	0.28
431.997	0.28
432.453	0.28
432.909	0.28
433.365	0.28
433.821	0.28
434.277	0.28
434.734	0.28
435.19	0.28
435.646	0.28
436.102	0.28
436.558	0.28
437.014	0.28
437.47	0.28
437.925	0.28
438.381	0.28
438.837	0.28
439.293	0.28
439.749	0.28
440.205	0.27
440.66	0.28
441.116	0.27
441.572	0.27
442.027	0.27
442.483	0.27
442.939	0.27
443.394	0.27
443.85	0.27
444.305	0.27
444.761	0.27
445.216	0.27
445.672	0.27
446.127	0.27
446.582	0.27
447.038	0.27
447.493	0.27
447.948	0.27
448.403	0.28
448.859	0.28
449.314	0.28
449.769	0.28
450.224	0.28
450.679	0.28
451.134	0.28
451.589	0.28
452.044	0.28
452.499	0.28
452.954	0.28
453.409	0.28
453.864	0.28
454.319	0.28
454.774	0.28
455.229	0.28
455.684	0.28
456.138	0.28
456.593	0.28
457.048	0.28
457.503	0.28
457.957	0.28
458.412	0.28
458.866	0.28
459.321	0.28
459.776	0.28
460.23	0.28
460.685	0.28
461.139	0.28
461.593	0.28
462.048	0.28
462.502	0.28
462.957	0.28
463.411	0.28
463.865	0.28
464.319	0.28
464.774	0.28
465.228	0.28
465.682	0.28
466.136	0.28
466.59	0.28
467.044	0.28
467.499	0.28
467.953	0.28
468.407	0.28
468.861	0.28
469.315	0.28
469.768	0.28
470.222	0.28
470.676	0.29
471.13	0.29
471.584	0.29
472.038	0.29
472.491	0.29
472.945	0.29
473.399	0.29
473.852	0.29
474.306	0.29
474.76	0.29
475.213	0.29
475.667	0.29
476.12	0.29
476.574	0.29
477.027	0.3
477.481	0.3
477.934	0.3
478.388	0.3
478.841	0.3
479.294	0.3
479.748	0.3
480.201	0.3
480.654	0.3
481.107	0.3
481.561	0.3
482.014	0.3
482.467	0.31
482.92	0.31
483.373	0.31
483.826	0.31
484.279	0.31
484.732	0.31
485.185	0.31
485.638	0.32
486.091	0.32
486.544	0.32
486.997	0.32
487.449	0.32
487.902	0.32
488.355	0.32
488.808	0.32
489.26	0.33
489.713	0.33
490.166	0.33
490.618	0.33
491.071	0.33
491.523	0.34
491.976	0.34
492.429	0.34
492.881	0.34
493.333	0.35
493.786	0.35
494.238	0.35
494.691	0.35
495.143	0.35
495.595	0.36
496.048	0.36
496.5	0.36
496.952	0.36
497.404	0.37
497.856	0.37
498.309	0.37
498.761	0.37
499.213	0.37
499.665	0.38
500.117	0.38
500.569	0.38
501.021	0.38
501.473	0.39
501.925	0.39
502.377	0.39
502.828	0.39
503.28	0.4
503.732	0.4
504.184	0.4
504.636	0.4
505.087	0.41
505.539	0.41
505.991	0.41
506.442	0.41
506.894	0.42
507.345	0.42
507.797	0.42
508.249	0.42
508.7	0.42
509.151	0.43
509.603	0.43
510.054	0.43
510.506	0.43
510.957	0.44
511.408	0.44
511.86	0.44
512.311	0.44
512.762	0.44
513.213	0.44
513.665	0.45
514.116	0.45
514.567	0.45
515.018	0.45
515.469	0.45
515.92	0.45
516.371	0.46
516.822	0.46
517.273	0.46
517.724	0.46
518.175	0.46
518.626	0.46
519.076	0.46
519.527	0.46
519.978	0.46
520.429	0.46
520.88	0.46
521.33	0.46
521.781	0.46
522.232	0.46
522.682	0.47
523.133	0.47
523.583	0.47
524.034	0.47
524.484	0.46
524.935	0.46
525.385	0.46
525.836	0.46
526.286	0.46
526.736	0.46
527.187	0.46
527.637	0.46
528.087	0.46
528.538	0.46
528.988	0.46
529.438	0.46
529.888	0.46
530.338	0.46
530.788	0.45
531.238	0.45
531.688	0.45
532.139	0.45
532.589	0.45
533.038	0.45
533.488	0.45
533.938	0.44
534.388	0.44
534.838	0.44
535.288	0.44
535.738	0.44
536.187	0.43
536.637	0.43
537.087	0.43
537.537	0.43
537.986	0.42
538.436	0.42
538.885	0.42
539.335	0.42
539.785	0.41
540.234	0.41
540.684	0.41
541.133	0.41
541.582	0.4
542.032	0.4
542.481	0.4
542.931	0.39
543.38	0.39
543.829	0.39
544.278	0.38
544.728	0.38
545.177	0.38
545.626	0.37
546.075	0.37
546.524	0.37
546.973	0.36
547.422	0.36
547.871	0.36
548.32	0.35
548.769	0.35
549.218	0.35
549.667	0.34
550.116	0.34
550.565	0.34
551.014	0.33
551.463	0.33
551.911	0.33
552.36	0.32
552.809	0.32
553.258	0.32
553.706	0.31
554.155	0.31
554.603	0.31
555.052	0.3
555.501	0.3
555.949	0.3
556.398	0.29
556.846	0.29
557.294	0.29
557.743	0.28
558.191	0.28
558.64	0.28
559.088	0.27
559.536	0.27
559.985	0.27
560.433	0.27
560.881	0.26
561.329	0.26
561.777	0.26
562.225	0.25
562.674	0.25
563.122	0.25
563.57	0.25
564.018	0.24
564.466	0.24
564.914	0.24
565.362	0.23
565.809	0.23
566.257	0.23
566.705	0.23
567.153	0.22
567.601	0.22
568.048	0.22
568.496	0.22
568.944	0.21
569.392	0.21
569.839	0.21
570.287	0.21
570.734	0.2
571.182	0.2
571.63	0.2
572.077	0.2
572.525	0.2
572.972	0.19
573.419	0.19
573.867	0.19
574.314	0.19
574.761	0.19
575.209	0.18
575.656	0.18
576.103	0.18
576.551	0.18
576.998	0.18
577.445	0.17
577.892	0.17
578.339	0.17
578.786	0.17
579.233	0.17
579.68	0.17
580.127	0.16
580.574	0.16
581.021	0.16
581.468	0.16
581.915	0.16
582.362	0.16
582.809	0.15
583.255	0.15
583.702	0.15
584.149	0.15
584.596	0.15
585.042	0.15
585.489	0.15
585.936	0.14
586.382	0.14
586.829	0.14
587.275	0.14
587.722	0.14
588.168	0.14
588.615	0.14
589.061	0.14
589.508	0.13
589.954	0.13
590.4	0.13
590.847	0.13
591.293	0.13
591.739	0.13
592.185	0.13
592.632	0.13
593.078	0.13
593.524	0.13
593.97	0.13
594.416	0.13
594.862	0.13
595.308	0.13
595.754	0.12
596.2	0.13
596.646	0.13
597.092	0.13
597.538	0.12
597.984	0.12
598.43	0.12
598.876	0.12
599.321	0.12
599.767	0.12
600.213	0.12
600.659	0.12
601.104	0.12
601.55	0.12
601.995	0.12
602.441	0.12
602.887	0.12
603.332	0.12
603.778	0.12
604.223	0.12
604.668	0.12
605.114	0.12
605.559	0.12
606.005	0.12
606.45	0.12
606.895	0.12
607.341	0.12
607.786	0.12
608.231	0.12
608.676	0.12
609.121	0.12
609.566	0.12
610.012	0.11
610.457	0.12
610.902	0.12
611.347	0.12
611.792	0.12
612.237	0.12
612.682	0.12
613.127	0.12
613.571	0.12
614.016	0.12
614.461	0.12
614.906	0.12
615.351	0.12
615.795	0.12
616.24	0.12
616.685	0.12
617.129	0.12
617.574	0.12
618.019	0.12
618.463	0.12
618.908	0.12
619.352	0.12
619.797	0.12
620.241	0.12
620.686	0.12
621.13	0.13
621.574	0.13
622.019	0.13
622.463	0.13
622.907	0.13
623.352	0.13
623.796	0.13
624.24	0.13
624.684	0.13
625.128	0.13
625.572	0.13
626.016	0.13
626.461	0.13
626.905	0.13
627.349	0.14
627.793	0.14
628.236	0.14
628.68	0.14
629.124	0.14
629.568	0.14
630.012	0.14
630.456	0.14
630.9	0.15
631.343	0.15
631.787	0.15
632.231	0.15
632.674	0.15
633.118	0.15
633.562	0.15
634.005	0.16
634.449	0.16
634.892	0.16
635.336	0.16
635.779	0.16
636.223	0.17
636.666	0.17
637.109	0.17
637.553	0.17
637.996	0.17
638.439	0.17
638.883	0.18
639.326	0.18
639.769	0.18
640.212	0.18
640.655	0.18
641.099	0.19
641.542	0.19
641.985	0.19
642.428	0.19
642.871	0.2
643.314	0.2
643.757	0.2
644.2	0.2
644.643	0.21
645.085	0.21
645.528	0.21
645.971	0.21
646.414	0.22
646.857	0.22
647.299	0.22
647.742	0.23
648.185	0.23
648.627	0.23
649.07	0.24
649.513	0.24
649.955	0.24
650.398	0.24
650.84	0.25
651.283	0.25
651.725	0.25
652.168	0.26
652.61	0.26
653.052	0.27
653.495	0.27
653.937	0.21
654.379	0.17
654.821	0.17
655.264	0.18
655.706	0.18
656.148	0.18
656.59	0.18
657.032	0.19
657.474	0.19
657.916	0.19
658.358	0.18
658.8	0.23
659.242	0.31
659.684	0.32
660.126	0.33
660.568	0.33
661.01	0.33
661.452	0.34
661.894	0.34
662.335	0.35
662.777	0.35
663.219	0.35
663.661	0.36
664.102	0.36
664.544	0.37
664.985	0.37
665.427	0.37
665.869	0.38
666.31	0.38
666.752	0.38
667.193	0.39
667.634	0.39
668.076	0.4
668.517	0.4
668.959	0.4
669.4	0.41
669.841	0.41
670.282	0.41
670.724	0.42
671.165	0.42
671.606	0.42
672.047	0.43
672.488	0.43
672.929	0.43
673.37	0.44
673.811	0.44
674.252	0.44
674.693	0.44
675.134	0.45
675.575	0.45
676.016	0.45
676.457	0.45
676.898	0.46
677.339	0.46
677.78	0.46
678.22	0.46
678.661	0.46
679.102	0.47
679.542	0.47
679.983	0.47
680.424	0.47
680.864	0.47
681.305	0.47
681.745	0.47
682.186	0.47
682.626	0.48
683.067	0.48
683.507	0.48
683.948	0.48
684.388	0.48
684.828	0.48
685.269	0.48
685.709	0.48
686.149	0.48
686.589	0.48
687.029	0.48
687.47	0.48
687.91	0.48
688.35	0.48
688.79	0.48
689.23	0.48
689.67	0.48
690.11	0.48
690.55	0.48
690.99	0.48
691.43	0.48
691.87	0.47
692.31	0.47
692.749	0.47
693.189	0.47
693.629	0.47
694.069	0.47
694.508	0.46
694.948	0.46
695.388	0.46
695.827	0.46
696.267	0.46
696.706	0.46
697.146	0.45
697.586	0.45
698.025	0.45
698.464	0.45
698.904	0.45
699.343	0.44
699.783	0.44
700.222	0.44
700.661	0.44
701.101	0.43
701.54	0.43
701.979	0.43
702.418	0.43
702.857	0.42
703.297	0.42
703.736	0.42
704.175	0.42
704.614	0.41
705.053	0.41
705.492	0.41
705.931	0.4
706.37	0.4
706.809	0.4
707.248	0.39
707.687	0.39
708.125	0.39
708.564	0.39
709.003	0.38
709.442	0.38
709.88	0.38
710.319	0.37
710.758	0.37
711.196	0.37
711.635	0.36
712.074	0.36
712.512	0.36
712.951	0.35
713.389	0.35
713.828	0.35
714.266	0.34
714.705	0.34
715.143	0.34
715.581	0.34
716.02	0.33
716.458	0.33
716.896	0.33
717.334	0.32
717.773	0.32
718.211	0.32
718.649	0.31
719.087	0.31
719.525	0.31
719.963	0.31
720.401	0.3
720.839	0.3
721.277	0.29
721.715	0.29
722.153	0.29
722.591	0.28
723.029	0.28
723.467	0.28
723.905	0.27
724.342	0.27
724.78	0.27
725.218	0.27
725.656	0.26
726.093	0.26
726.531	0.26
726.969	0.26
727.406	0.25
727.844	0.25
728.281	0.25
728.719	0.25
729.156	0.24
729.594	0.24
730.031	0.24
730.469	0.24
730.906	0.23
731.343	0.23
731.781	0.23
732.218	0.23
732.655	0.22
733.092	0.22
733.53	0.22
733.967	0.22
734.404	0.21
734.841	0.21
735.278	0.21
735.715	0.21
736.152	0.2
736.589	0.2
737.026	0.2
737.463	0.2
737.9	0.2
738.337	0.19
738.774	0.19
739.211	0.19
739.647	0.19
740.084	0.19
740.521	0.18
740.958	0.18
741.394	0.18
741.831	0.18
742.268	0.17
742.704	0.17
743.141	0.17
743.577	0.17
744.014	0.16
744.45	0.16
744.887	0.16
745.323	0.16
745.76	0.15
746.196	0.15
746.632	0.15
747.069	0.15
747.505	0.15
747.941	0.14
748.378	0.14
748.814	0.14
749.25	0.14
749.686	0.14
750.122	0.13
750.558	0.13
750.994	0.13
751.43	0.13
751.866	0.13
752.302	0.13
752.738	0.13
753.174	0.13
753.61	0.13
754.046	0.13
754.482	0.12
754.918	0.12
755.354	0.12
755.789	0.12
756.225	0.12
756.661	0.12
757.096	0.12
757.532	0.11
757.968	0.11
758.403	0.11
758.839	0.11
759.274	0.11
759.71	0.11
760.145	0.1
760.581	0.1
761.016	0.1
761.452	0.1
761.887	0.1
762.322	0.1
762.758	0.1
763.193	0.1
763.628	0.1
764.063	0.09
764.499	0.09
764.934	0.09
765.369	0.09
765.804	0.09
766.239	0.09
766.674	0.09
767.109	0.09
767.544	0.09
767.979	0.08
768.414	0.08
768.849	0.08
769.284	0.08
769.719	0.08
770.154	0.08
770.588	0.08
771.023	0.08
771.458	0.08
771.893	0.08
772.327	0.07
772.762	0.07
773.197	0.07
773.631	0.07
774.066	0.07
774.5	0.07
774.935	0.07
775.369	0.07
775.804	0.07
776.238	0.07
776.673	0.07
777.107	0.07
777.541	0.07
777.976	0.07
778.41	0.06
778.844	0.06
779.279	0.06
779.713	0.06
780.147	0.06
780.581	0.06
781.015	0.06
781.449	0.06
781.883	0.06
782.317	0.05
782.751	0.05
783.185	0.05
783.619	0.05
784.053	0.05
784.487	0.05
784.921	0.05
785.355	0.05
785.789	0.05
786.223	0.05
786.656	0.05
787.09	0.05
787.524	0.05
787.957	0.05
788.391	0.05
788.825	0.05
789.258	0.05
789.692	0.05
790.125	0.05
790.559	0.05
790.992	0.05
791.426	0.04
791.859	0.05
792.293	0.04
792.726	0.04
793.159	0.04
793.593	0.04
794.026	0.04
794.459	0.04
794.892	0.04
795.326	0.04
795.759	0.04
796.192	0.04
796.625	0.04
797.058	0.04
797.491	0.04
797.924	0.04
798.357	0.04
798.79	0.04
799.223	0.04
799.656	0.04
800.089	0.04
800.522	0.04
800.955	0.04
801.387	0.04
801.82	0.04
802.253	0.04
802.686	0.04
803.118	0.03
803.551	0.03
803.984	0.03
804.416	0.03
804.849	0.03
805.281	0.03
805.714	0.03
806.146	0.03
806.579	0.03
807.011	0.03
807.444	0.03
807.876	0.03
808.308	0.03
808.741	0.03
809.173	0.03
809.605	0.03
810.037	0.03
810.47	0.03
810.902	0.03
811.334	0.03
811.766	0.03
812.198	0.03
812.63	0.03
813.062	0.03
813.494	0.03
813.926	0.02
814.358	0.02
814.79	0.02
815.222	0.02
815.654	0.02
816.086	0.02
816.518	0.02
816.949	0.02
817.381	0.02
817.813	0.02
818.245	0.02
818.676	0.02
819.108	0.02
819.54	0.02
819.971	0.02
820.403	0.02
820.834	0.02
821.266	0.02
821.697	0.02
822.129	0.02
822.56	0.02
822.991	0.02
823.423	0.02
823.854	0.02
824.286	0.02
824.717	0.02
825.148	0.02
825.579	0.02
826.01	0.02
826.442	0.02
826.873	0.02
827.304	0.02
827.735	0.02
828.166	0.02
828.597	0.02
829.028	0.02
829.459	0.02
829.89	0.02
830.321	0.02
830.752	0.02
831.183	0.02
831.613	0.02
832.044	0.02
832.475	0.02
832.906	0.02
833.336	0.02
833.767	0.02
834.198	0.02
834.628	0.02
835.059	0.02
835.49	0.02
835.92	0.02
836.351	0.02
836.781	0.02
837.212	0.02
837.642	0.02
838.072	0.02
838.503	0.01
838.933	0.01
839.364	0.01
839.794	0.01
840.224	0.01
840.654	0.01
841.085	0.01
841.515	0.01
841.945	0.01
842.375	0.01
842.805	0.01
843.235	0.01
843.665	0.01
844.095	0.01
844.525	0.01
844.955	0.01
845.385	0.01
845.815	0.01
846.245	0.01
846.675	0.01
847.105	0.01
847.534	0.01
847.964	0.01
848.394	0.01
848.824	0.01
849.253	0.01
849.683	0.01
850.112	0.01
850.542	0.01
850.972	0.01
851.401	0.01
851.831	0.01
852.26	0.01
852.69	0.01
853.119	0.01
853.548	0.01
853.978	0.01
854.407	0.01
854.836	0.01
855.266	0.01
855.695	0.01
856.124	0.01
856.553	0.01
856.983	0.01
857.412	0.01
857.841	0.01
858.27	0.01
858.699	0.01
859.128	0.01
859.557	0.01
859.986	0.01
860.415	0.01
860.844	0.01
861.273	0.01
861.702	0.01
862.13	0.01
862.559	0.01
862.988	0.01
863.417	0.01
863.845	0.01
864.274	0.01
864.703	0.01
865.131	0.01
865.56	0.01
865.989	0.01
866.417	0.01
866.846	0.01
867.274	0.01
867.703	0.01
868.131	0.01
868.559	0.01
868.988	0.01
869.416	0.01
869.844	0.01
870.273	0.01
870.701	0.01
871.129	0.01
871.557	0.01
871.986	0.01
872.414	0.01
872.842	0.01
873.27	0.01
873.698	0.01
874.126	0.01
874.554	0.01
874.982	0.01
875.41	0.01
875.838	0.01
876.266	0.01
876.694	0.01
877.122	0.01
877.549	0.01
877.977	0.01
878.405	0.01
878.833	0.01
879.26	0.01
879.688	0.01
880.116	0
880.543	0
880.971	0
881.399	0
881.826	0
882.254	0
882.681	0
883.109	0
883.536	0
883.963	0
884.391	0
884.818	0
885.245	0
885.673	0
886.1	0
886.527	0
886.954	0
887.381	0
887.809	-0
888.236	-0
888.663	-0
889.09	-0
889.517	-0
889.944	-0
890.371	-0
890.798	-0
891.225	-0
891.652	-0
892.078	-0
892.505	-0
892.932	-0
893.359	-0
893.786	-0
894.212	-0
894.639	-0
895.066	-0
895.492	-0
895.919	-0
896.346	-0
896.772	-0
897.199	-0
897.625	-0.01
898.052	-0.01
898.478	-0.01
898.904	-0.01
899.331	-0.01
899.757	-0.01
900.183	-0.01
900.61	-0.01
901.036	-0.01
901.462	-0
901.888	-0
902.315	-0
902.741	-0
903.167	-0
903.593	-0
904.019	-0.01
904.445	-0.01
904.871	-0.01
905.297	-0.01
905.723	-0.01
906.149	-0.01
906.575	-0.01
907.001	-0.01
907.427	-0.01
907.852	-0.01
908.278	-0.01
908.704	-0.01
909.13	-0.01
909.555	-0.01
909.981	-0.01
910.407	-0.01
910.832	-0.01
911.258	-0.01
911.684	-0.01
912.109	-0.01
912.535	-0.01
912.96	-0.01
913.386	-0.01
913.811	-0.01
914.236	-0
914.662	-0
915.087	-0
915.512	-0
915.938	-0
916.363	-0
916.788	-0
917.213	-0
917.639	-0
918.064	-0
918.489	0
918.914	0
919.339	0
919.764	0
920.189	0
920.614	0
921.039	0
921.464	0
921.889	-0
922.314	-0
922.738	-0
923.163	-0
923.588	-0
924.013	-0.01
924.437	-0.01
924.862	-0.01
925.287	-0.01
925.711	-0.01
926.136	-0.01
926.561	-0
926.985	-0
927.41	-0
927.834	-0
928.259	-0
928.683	-0
929.108	-0
929.532	-0
929.956	-0
930.381	-0
930.805	-0.01
931.229	-0.01
931.653	-0.01
932.078	-0.01
932.502	-0.01
932.926	-0.01
933.35	-0.01
933.774	-0.01
934.198	-0.01
934.622	-0.01
935.046	-0.01
935.47	-0.01
935.894	-0.01
936.318	-0.01
936.742	-0.01
937.166	-0.01
937.59	-0.01
938.014	-0.01
938.437	-0.01
938.861	-0.01
939.285	-0.01
939.709	-0.01
940.132	-0.01
940.556	-0.01
940.98	-0.01
941.403	-0.01
941.827	-0.01
942.25	-0.01
942.674	-0.01
943.097	-0.01
943.521	-0.01
943.944	-0.01
944.368	-0.01
944.791	-0.01
945.214	-0.01
945.638	-0.01
946.061	-0.01
946.484	-0.01
946.907	-0.01
947.331	-0.01
947.754	-0.01
948.177	-0.01
948.6	-0.01
949.023	-0.01
949.446	-0.01
949.869	-0.01
950.292	-0.01
950.715	-0.01
951.138	-0.01
951.561	-0.01
951.984	-0.01
952.407	-0.01
952.83	-0.01
953.252	-0.01
953.675	-0.01
954.098	-0.01
954.521	-0.01
954.943	-0.01
955.366	-0.01
955.789	-0.01
956.211	-0.01
956.634	-0.01
957.056	-0.01
957.479	-0.01
957.902	-0.01
958.324	-0.01
958.746	-0.01
959.169	-0.01
959.591	-0.01
960.014	-0.01
960.436	-0.01
960.858	-0.01
961.281	-0.01
961.703	-0.01
962.125	-0.01
962.547	-0.01
962.969	-0.01
963.391	-0.01
963.814	-0.01
964.236	-0.01
964.658	-0.01
965.08	-0.01
965.502	-0.01
965.924	-0.01
966.346	-0.01
966.768	-0.01
967.189	-0.01
967.611	-0.01
968.033	-0.01
968.455	-0.01
968.877	-0.01
969.298	-0.01
969.72	-0.01
970.142	-0.01
970.563	-0.01
970.985	-0.01
971.407	-0.01
971.828	-0.01
972.25	-0.01
972.671	-0.01
973.093	-0.01
973.514	-0.01
973.936	-0.01
974.357	-0.01
974.778	-0.01
975.2	-0.01
975.621	-0.01
976.042	-0.01
976.464	-0.01
976.885	-0.01
977.306	-0.01
977.727	-0.01
978.148	-0.01
978.57	-0.01
978.991	-0.01
979.412	-0.01
979.833	-0.01
980.254	-0.01
980.675	-0.01
981.096	-0.01
981.517	-0.01
981.937	-0.01
982.358	-0.01
982.779	-0.01
983.2	-0.01
983.621	-0.02
984.042	-0.02
984.462	-0.02
984.883	-0.02
985.304	-0.02
985.724	-0.02
986.145	-0.02
986.565	-0.02
986.986	-0.02
987.407	-0.02
987.827	-0.02
988.248	-0.02
988.668	-0.02
989.088	-0.02
989.509	-0.02
989.929	-0.02
990.35	-0.02
990.77	-0.01
991.19	-0.01
991.61	-0.01
992.031	-0.01
992.451	-0.01
992.871	-0.01
993.291	-0.01
993.711	-0.01
994.131	-0.01
994.551	-0.01
994.971	-0.01
995.391	-0.01
995.811	-0.01
996.231	-0.01
996.651	-0.01
997.071	-0.01
997.491	-0.01
997.911	-0.01
998.331	-0.01
998.75	-0.01
999.17	-0.01
999.59	-0.01
1000.009	-0.01
1000.429	-0.01
1000.849	-0.01
1001.268	-0.01
1001.688	-0.01
1002.107	-0.01
1002.527	-0.01
1002.946	-0.01
1003.366	-0.01
1003.785	-0.01
1004.205	-0.01
1004.624	-0.01
1005.044	-0.01
1005.463	-0.01
1005.882	-0.01
1006.301	-0.01
1006.721	-0.01
1007.14	-0.01
1007.559	-0.01
1007.978	-0.01
1008.397	-0.01
1008.816	-0.01
1009.235	-0.01
1009.655	-0.01
1010.074	-0.01
1010.492	-0.01
1010.911	-0.01
1011.33	-0.01
1011.749	-0.01
1012.168	-0.01
1012.587	-0.01
1013.006	-0.01
1013.425	-0.01
1013.843	-0.02
1014.262	-0.02
1014.681	-0.02
1015.099	-0.02
1015.518	-0.02
1015.937	-0.02
1016.355	-0.02
1016.774	-0.02
1017.192	-0.02
1017.611	-0.02
1018.029	-0.02
1018.448	-0.02
1018.866	-0.02
1019.285	-0.02
1019.703	-0.02
1020.121	-0.02
1020.54	-0.02
1020.958	-0.02
1021.376	-0.02
1021.794	-0.02
1022.213	-0.02
1022.631	-0.02
1023.049	-0.02
1023.467	-0.02
1023.885	-0.02
1024.303	-0.02
1024.721	-0.02
1025.139	-0.02
1025.557	-0.02
1025.975	-0.02
1026.393	-0.02
1026.811	-0.02
1027.229	-0.02
1027.647	-0.02
1028.065	-0.02
1028.482	-0.03
1028.9	-0.03
1029.318	-0.03
1029.735	-0.03
1030.153	-0.03
1030.571	-0.03
1030.988	-0.03
1031.406	-0.03
1031.823	-0.03
1032.241	-0.03
1032.659	-0.03
1033.076	-0.03
1033.493	-0.03
1033.911	-0.03
1034.328	-0.03
1034.746	-0.03
1035.163	-0.03
1035.58	-0.03
1035.997	-0.03
1036.415	-0.03
1036.832	-0.03
1037.249	-0.03
1037.666	-0.03
1038.083	-0.03
1038.501	-0.03
1038.918	-0.03
1039.335	-0.03
1039.752	-0.03
1040.169	-0.03
1040.586	-0.03
1041.003	-0.03
1041.419	-0.03
1041.836	-0.03
1042.253	-0.03
1042.67	-0.03
1043.087	-0.03
1043.504	-0.03
1043.92	-0.03
1044.337	-0.03
1044.754	-0.03
1045.17	-0.03
1045.587	-0.03
1046.004	-0.03
1046.42	-0.03
1046.837	-0.03
1047.253	-0.03
1047.67	-0.03
1048.086	-0.03
1048.503	-0.03
1048.919	-0.03
1049.335	-0.04
1049.752	-0.04
1050.168	-0.04
1050.584	-0.04
1051.001	-0.04
1051.417	-0.04
1051.833	-0.04
1052.249	-0.04
1052.665	-0.04
1053.081	-0.04
1053.497	-0.04
1053.914	-0.04
1054.33	-0.04
1054.746	-0.04
1055.162	-0.04
1055.578	-0.04
1055.993	-0.04
1056.409	-0.04
1056.825	-0.04
1057.241	-0.04
1057.657	-0.04
1058.073	-0.04
1058.488	-0.04
1058.904	-0.04
1059.32	-0.04
1059.736	-0.04
1060.151	-0.04
1060.567	-0.04
1060.982	-0.04
1061.398	-0.04
1061.813	-0.04
1062.229	-0.04
1062.644	-0.04
1063.06	-0.04
1063.475	-0.04
1063.891	-0.04
1064.306	-0.04
1064.721	-0.04
1065.137	-0.05
1065.552	-0.05
1065.967	-0.05
1066.382	-0.05
1066.798	-0.05
1067.213	-0.05
1067.628	-0.04
1068.043	-0.04
1068.458	-0.04
1068.873	-0.04
1069.288	-0.04
1069.703	-0.04
1070.118	-0.04
1070.533	-0.04
1070.948	-0.04
1071.363	-0.04
1071.778	-0.04
1072.193	-0.04
1072.607	-0.04
1073.022	-0.04
1073.437	-0.04
1073.852	-0.04
1074.266	-0.04
1074.681	-0.04
1075.096	-0.04
1075.51	-0.05
1075.925	-0.05
1076.339	-0.05
1076.754	-0.05
1077.168	-0.05
1077.583	-0.05
1077.997	-0.05
1078.412	-0.05
1078.826	-0.05
1079.24	-0.05
1079.655	-0.05
1080.069	-0.05
1080.483	-0.05
1080.897	-0.05
1081.312	-0.05
1081.726	-0.05
1082.14	-0.05
1082.554	-0.05
1082.968	-0.05
1083.382	-0.05
1083.796	-0.05
1084.21	-0.05
1084.624	-0.05
1085.038	-0.05
1085.452	-0.05
1085.866	-0.05
1086.28	-0.06
1086.694	-0.06
1087.108	-0.06
1087.521	-0.06
1087.935	-0.06
1088.349	-0.06
1088.763	-0.06
1089.176	-0.06
1089.59	-0.06
1090.004	-0.06
1090.417	-0.06
1090.831	-0.06
1091.244	-0.06
1091.658	-0.06
1092.071	-0.06
1092.485	-0.06
1092.898	-0.06
1093.312	-0.06
1093.725	-0.06
1094.138	-0.06
1094.552	-0.06
1094.965	-0.06
1095.378	-0.06
1095.791	-0.06
1096.205	-0.06
1096.618	-0.06
1097.031	-0.06
1097.444	-0.06
1097.857	-0.06
1098.27	-0.06
1098.683	-0.07
1099.096	-0.07
1099.509	-0.07
1099.922	-0.07
1100.335	-0.07
1100.748	-0.07
1101.161	-0.08
1101.574	-0.08
1101.986	-0.08
1102.399	-0.08
1102.812	-0.08
1103.225	-0.09
1103.637	-0.09
1104.05	-0.09
1104.463	-0.09
1104.875	-0.09
1105.288	-0.09
1105.7	-0.09
1106.113	-0.09
1106.525	-0.1
1106.938	-0.1
1107.35	-0.1
1107.763	-0.1
1108.175	-0.1
1108.588	-0.1
1109	-0.11
1109.412	-0.11
1109.824	-0.11
1110.237	-0.11
1110.649	-0.12
1111.061	-0.11
