Data from disp-8_Absorbance__0__13-34-36-313.txt Node

Date: Thu Feb 22 13:34:36 CET 2024
User: Laser008
Spectrometer: MAYP115816
Trigger mode: 0
Integration Time (sec): 1.800000E-1
Scans to average: 10
Electric dark correction enabled: true
Nonlinearity correction enabled: true
Boxcar width: 5
XAxis mode: Wavelengths
Number of Pixels in Spectrum: 2068
>>>>>Begin Spectral Data<<<<<
198.914	-0.53
199.384	-0.5
199.855	-0.43
200.325	-0.36
200.796	-0.32
201.266	-0.29
201.737	-0.28
202.207	-0.27
202.677	-0.26
203.147	-0.26
203.618	-0.24
204.088	-0.22
204.558	-0.21
205.028	-0.2
205.498	-0.2
205.968	-0.21
206.439	-0.21
206.909	-0.21
207.379	-0.21
207.849	-0.21
208.319	-0.21
208.789	-0.21
209.258	-0.21
209.728	-0.21
210.198	-0.21
210.668	-0.21
211.138	-0.21
211.608	-0.21
212.077	-0.21
212.547	-0.21
213.017	-0.21
213.486	-0.22
213.956	-0.22
214.426	-0.21
214.895	-0.21
215.365	-0.22
215.834	-0.22
216.304	-0.22
216.773	-0.22
217.243	-0.22
217.712	-0.22
218.181	-0.22
218.651	-0.21
219.12	-0.22
219.589	-0.22
220.058	-0.22
220.528	-0.22
220.997	-0.21
221.466	-0.21
221.935	-0.21
222.404	-0.21
222.873	-0.2
223.342	-0.2
223.812	-0.2
224.281	-0.19
224.749	-0.19
225.218	-0.18
225.687	-0.17
226.156	-0.16
226.625	-0.15
227.094	-0.15
227.563	-0.13
228.031	-0.12
228.5	-0.1
228.969	-0.08
229.438	-0.06
229.906	-0.03
230.375	-0
230.844	0.03
231.312	0.06
231.781	0.08
232.249	0.12
232.718	0.15
233.186	0.18
233.655	0.22
234.123	0.25
234.591	0.27
235.06	0.3
235.528	0.33
235.996	0.35
236.465	0.38
236.933	0.4
237.401	0.42
237.869	0.44
238.337	0.45
238.805	0.47
239.274	0.48
239.742	0.5
240.21	0.51
240.678	0.52
241.146	0.52
241.614	0.53
242.081	0.54
242.549	0.54
243.017	0.55
243.485	0.55
243.953	0.56
244.421	0.56
244.888	0.57
245.356	0.57
245.824	0.57
246.291	0.58
246.759	0.58
247.227	0.59
247.694	0.59
248.162	0.59
248.629	0.6
249.097	0.6
249.564	0.6
250.032	0.6
250.499	0.61
250.967	0.61
251.434	0.61
251.901	0.61
252.369	0.62
252.836	0.62
253.303	0.62
253.77	0.62
254.237	0.62
254.705	0.62
255.172	0.63
255.639	0.63
256.106	0.63
256.573	0.63
257.04	0.63
257.507	0.63
257.974	0.63
258.441	0.63
258.908	0.63
259.375	0.63
259.841	0.63
260.308	0.63
260.775	0.63
261.242	0.63
261.709	0.63
262.175	0.63
262.642	0.63
263.109	0.63
263.575	0.63
264.042	0.63
264.508	0.63
264.975	0.62
265.441	0.62
265.908	0.62
266.374	0.62
266.841	0.62
267.307	0.61
267.773	0.61
268.24	0.61
268.706	0.61
269.172	0.61
269.639	0.6
270.105	0.6
270.571	0.6
271.037	0.59
271.503	0.59
271.969	0.59
272.435	0.59
272.902	0.58
273.368	0.58
273.834	0.58
274.3	0.57
274.765	0.57
275.231	0.57
275.697	0.57
276.163	0.56
276.629	0.56
277.095	0.55
277.56	0.55
278.026	0.55
278.492	0.54
278.958	0.54
279.423	0.53
279.889	0.53
280.354	0.53
280.82	0.52
281.286	0.52
281.751	0.51
282.217	0.51
282.682	0.51
283.147	0.51
283.613	0.5
284.078	0.5
284.544	0.5
285.009	0.49
285.474	0.49
285.939	0.49
286.405	0.49
286.87	0.48
287.335	0.48
287.8	0.48
288.265	0.48
288.73	0.47
289.195	0.47
289.66	0.47
290.125	0.46
290.59	0.46
291.055	0.46
291.52	0.46
291.985	0.46
292.45	0.45
292.915	0.45
293.38	0.45
293.844	0.45
294.309	0.44
294.774	0.44
295.239	0.44
295.703	0.44
296.168	0.44
296.632	0.44
297.097	0.43
297.562	0.43
298.026	0.43
298.491	0.43
298.955	0.43
299.419	0.43
299.884	0.43
300.348	0.42
300.813	0.42
301.277	0.42
301.741	0.42
302.205	0.42
302.67	0.42
303.134	0.42
303.598	0.41
304.062	0.41
304.526	0.41
304.99	0.41
305.454	0.41
305.919	0.41
306.383	0.41
306.847	0.41
307.31	0.41
307.774	0.4
308.238	0.4
308.702	0.4
309.166	0.4
309.63	0.4
310.094	0.4
310.557	0.4
311.021	0.4
311.485	0.4
311.948	0.39
312.412	0.39
312.876	0.39
313.339	0.39
313.803	0.39
314.266	0.39
314.73	0.39
315.193	0.39
315.657	0.39
316.12	0.39
316.584	0.38
317.047	0.38
317.51	0.38
317.973	0.38
318.437	0.38
318.9	0.38
319.363	0.38
319.826	0.38
320.29	0.38
320.753	0.38
321.216	0.37
321.679	0.37
322.142	0.37
322.605	0.37
323.068	0.37
323.531	0.37
323.994	0.37
324.457	0.37
324.92	0.37
325.382	0.37
325.845	0.36
326.308	0.36
326.771	0.36
327.233	0.36
327.696	0.36
328.159	0.36
328.622	0.36
329.084	0.36
329.547	0.36
330.009	0.36
330.472	0.36
330.934	0.36
331.397	0.36
331.859	0.35
332.322	0.35
332.784	0.35
333.246	0.35
333.709	0.35
334.171	0.35
334.633	0.35
335.096	0.35
335.558	0.35
336.02	0.35
336.482	0.35
336.944	0.35
337.406	0.35
337.868	0.34
338.331	0.34
338.793	0.34
339.255	0.34
339.717	0.34
340.178	0.34
340.64	0.34
341.102	0.34
341.564	0.34
342.026	0.34
342.488	0.34
342.949	0.34
343.411	0.34
343.873	0.34
344.335	0.34
344.796	0.34
345.258	0.34
345.719	0.34
346.181	0.34
346.643	0.33
347.104	0.33
347.566	0.33
348.027	0.33
348.488	0.33
348.95	0.33
349.411	0.33
349.873	0.33
350.334	0.33
350.795	0.33
351.256	0.33
351.718	0.33
352.179	0.33
352.64	0.33
353.101	0.33
353.562	0.33
354.023	0.33
354.484	0.33
354.945	0.33
355.406	0.33
355.867	0.33
356.328	0.33
356.789	0.33
357.25	0.33
357.711	0.33
358.172	0.33
358.633	0.33
359.093	0.33
359.554	0.33
360.015	0.33
360.476	0.33
360.936	0.33
361.397	0.33
361.858	0.33
362.318	0.33
362.779	0.33
363.239	0.33
363.7	0.33
364.16	0.33
364.621	0.32
365.081	0.32
365.541	0.32
366.002	0.32
366.462	0.32
366.922	0.32
367.383	0.32
367.843	0.32
368.303	0.32
368.763	0.32
369.223	0.32
369.684	0.32
370.144	0.32
370.604	0.32
371.064	0.32
371.524	0.32
371.984	0.32
372.444	0.32
372.904	0.32
373.363	0.32
373.823	0.32
374.283	0.32
374.743	0.32
375.203	0.32
375.663	0.32
376.122	0.32
376.582	0.32
377.042	0.32
377.501	0.32
377.961	0.32
378.42	0.32
378.88	0.32
379.34	0.32
379.799	0.32
380.259	0.32
380.718	0.32
381.177	0.32
381.637	0.32
382.096	0.32
382.555	0.32
383.015	0.31
383.474	0.31
383.933	0.31
384.393	0.31
384.852	0.31
385.311	0.31
385.77	0.31
386.229	0.31
386.688	0.31
387.147	0.31
387.606	0.31
388.065	0.31
388.524	0.31
388.983	0.31
389.442	0.31
389.901	0.31
390.36	0.31
390.819	0.31
391.277	0.31
391.736	0.31
392.195	0.31
392.654	0.31
393.112	0.31
393.571	0.31
394.03	0.31
394.488	0.31
394.947	0.31
395.405	0.31
395.864	0.31
396.322	0.31
396.781	0.31
397.239	0.31
397.698	0.31
398.156	0.31
398.614	0.31
399.073	0.31
399.531	0.3
399.989	0.3
400.447	0.3
400.905	0.3
401.364	0.3
401.822	0.3
402.28	0.3
402.738	0.3
403.196	0.3
403.654	0.3
404.112	0.3
404.57	0.3
405.028	0.3
405.486	0.3
405.944	0.3
406.402	0.3
406.859	0.3
407.317	0.3
407.775	0.3
408.233	0.3
408.691	0.3
409.148	0.3
409.606	0.3
410.064	0.3
410.521	0.3
410.979	0.3
411.436	0.3
411.894	0.3
412.351	0.3
412.809	0.3
413.266	0.3
413.724	0.3
414.181	0.3
414.638	0.3
415.096	0.3
415.553	0.3
416.01	0.3
416.467	0.29
416.925	0.29
417.382	0.29
417.839	0.29
418.296	0.29
418.753	0.29
419.21	0.29
419.667	0.29
420.124	0.29
420.581	0.29
421.038	0.29
421.495	0.29
421.952	0.29
422.409	0.29
422.866	0.29
423.322	0.29
423.779	0.29
424.236	0.29
424.693	0.29
425.149	0.29
425.606	0.29
426.063	0.29
426.519	0.29
426.976	0.29
427.433	0.29
427.889	0.29
428.346	0.29
428.802	0.29
429.258	0.29
429.715	0.29
430.171	0.29
430.628	0.29
431.084	0.29
431.54	0.29
431.997	0.29
432.453	0.29
432.909	0.29
433.365	0.29
433.821	0.29
434.277	0.29
434.734	0.29
435.19	0.29
435.646	0.29
436.102	0.29
436.558	0.29
437.014	0.29
437.47	0.29
437.925	0.29
438.381	0.29
438.837	0.29
439.293	0.29
439.749	0.29
440.205	0.29
440.66	0.29
441.116	0.29
441.572	0.29
442.027	0.29
442.483	0.29
442.939	0.29
443.394	0.29
443.85	0.29
444.305	0.29
444.761	0.29
445.216	0.29
445.672	0.29
446.127	0.29
446.582	0.29
447.038	0.29
447.493	0.29
447.948	0.29
448.403	0.29
448.859	0.29
449.314	0.29
449.769	0.29
450.224	0.29
450.679	0.29
451.134	0.29
451.589	0.29
452.044	0.29
452.499	0.29
452.954	0.29
453.409	0.29
453.864	0.29
454.319	0.29
454.774	0.29
455.229	0.29
455.684	0.29
456.138	0.29
456.593	0.29
457.048	0.29
457.503	0.29
457.957	0.29
458.412	0.29
458.866	0.29
459.321	0.29
459.776	0.29
460.23	0.29
460.685	0.29
461.139	0.29
461.593	0.29
462.048	0.29
462.502	0.29
462.957	0.29
463.411	0.29
463.865	0.29
464.319	0.29
464.774	0.29
465.228	0.3
465.682	0.3
466.136	0.3
466.59	0.3
467.044	0.3
467.499	0.3
467.953	0.3
468.407	0.3
468.861	0.3
469.315	0.3
469.768	0.3
470.222	0.3
470.676	0.3
471.13	0.3
471.584	0.3
472.038	0.3
472.491	0.3
472.945	0.3
473.399	0.3
473.852	0.31
474.306	0.31
474.76	0.31
475.213	0.31
475.667	0.31
476.12	0.31
476.574	0.31
477.027	0.31
477.481	0.31
477.934	0.31
478.388	0.31
478.841	0.31
479.294	0.31
479.748	0.32
480.201	0.32
480.654	0.32
481.107	0.32
481.561	0.32
482.014	0.32
482.467	0.32
482.92	0.32
483.373	0.33
483.826	0.33
484.279	0.33
484.732	0.33
485.185	0.33
485.638	0.33
486.091	0.33
486.544	0.33
486.997	0.34
487.449	0.34
487.902	0.34
488.355	0.34
488.808	0.34
489.26	0.34
489.713	0.35
490.166	0.35
490.618	0.35
491.071	0.35
491.523	0.35
491.976	0.36
492.429	0.36
492.881	0.36
493.333	0.36
493.786	0.36
494.238	0.37
494.691	0.37
495.143	0.37
495.595	0.37
496.048	0.37
496.5	0.38
496.952	0.38
497.404	0.38
497.856	0.38
498.309	0.39
498.761	0.39
499.213	0.39
499.665	0.39
500.117	0.4
500.569	0.4
501.021	0.4
501.473	0.4
501.925	0.4
502.377	0.41
502.828	0.41
503.28	0.41
503.732	0.41
504.184	0.42
504.636	0.42
505.087	0.42
505.539	0.42
505.991	0.43
506.442	0.43
506.894	0.43
507.345	0.43
507.797	0.44
508.249	0.44
508.7	0.44
509.151	0.44
509.603	0.45
510.054	0.45
510.506	0.45
510.957	0.45
511.408	0.45
511.86	0.46
512.311	0.46
512.762	0.46
513.213	0.46
513.665	0.46
514.116	0.46
514.567	0.47
515.018	0.47
515.469	0.47
515.92	0.47
516.371	0.47
516.822	0.47
517.273	0.47
517.724	0.47
518.175	0.47
518.626	0.48
519.076	0.48
519.527	0.48
519.978	0.48
520.429	0.48
520.88	0.48
521.33	0.48
521.781	0.48
522.232	0.48
522.682	0.48
523.133	0.48
523.583	0.48
524.034	0.48
524.484	0.48
524.935	0.48
525.385	0.48
525.836	0.48
526.286	0.48
526.736	0.48
527.187	0.48
527.637	0.48
528.087	0.48
528.538	0.48
528.988	0.47
529.438	0.47
529.888	0.47
530.338	0.47
530.788	0.47
531.238	0.47
531.688	0.47
532.139	0.47
532.589	0.46
533.038	0.46
533.488	0.46
533.938	0.46
534.388	0.46
534.838	0.45
535.288	0.45
535.738	0.45
536.187	0.45
536.637	0.45
537.087	0.44
537.537	0.44
537.986	0.44
538.436	0.44
538.885	0.43
539.335	0.43
539.785	0.43
540.234	0.43
540.684	0.42
541.133	0.42
541.582	0.42
542.032	0.41
542.481	0.41
542.931	0.41
543.38	0.4
543.829	0.4
544.278	0.4
544.728	0.4
545.177	0.39
545.626	0.39
546.075	0.39
546.524	0.38
546.973	0.38
547.422	0.37
547.871	0.37
548.32	0.37
548.769	0.37
549.218	0.36
549.667	0.36
550.116	0.35
550.565	0.35
551.014	0.35
551.463	0.34
551.911	0.34
552.36	0.34
552.809	0.33
553.258	0.33
553.706	0.33
554.155	0.32
554.603	0.32
555.052	0.32
555.501	0.31
555.949	0.31
556.398	0.31
556.846	0.3
557.294	0.3
557.743	0.3
558.191	0.3
558.64	0.29
559.088	0.29
559.536	0.29
559.985	0.28
560.433	0.28
560.881	0.28
561.329	0.27
561.777	0.27
562.225	0.27
562.674	0.27
563.122	0.26
563.57	0.26
564.018	0.26
564.466	0.25
564.914	0.25
565.362	0.25
565.809	0.25
566.257	0.24
566.705	0.24
567.153	0.24
567.601	0.24
568.048	0.23
568.496	0.23
568.944	0.23
569.392	0.23
569.839	0.22
570.287	0.22
570.734	0.22
571.182	0.22
571.63	0.22
572.077	0.21
572.525	0.21
572.972	0.21
573.419	0.21
573.867	0.2
574.314	0.2
574.761	0.2
575.209	0.2
575.656	0.2
576.103	0.19
576.551	0.19
576.998	0.19
577.445	0.19
577.892	0.19
578.339	0.19
578.786	0.19
579.233	0.18
579.68	0.18
580.127	0.18
580.574	0.18
581.021	0.17
581.468	0.17
581.915	0.17
582.362	0.17
582.809	0.17
583.255	0.17
583.702	0.17
584.149	0.16
584.596	0.16
585.042	0.16
585.489	0.16
585.936	0.16
586.382	0.16
586.829	0.16
587.275	0.16
587.722	0.15
588.168	0.15
588.615	0.15
589.061	0.15
589.508	0.15
589.954	0.15
590.4	0.15
590.847	0.15
591.293	0.15
591.739	0.15
592.185	0.15
592.632	0.15
593.078	0.15
593.524	0.14
593.97	0.14
594.416	0.14
594.862	0.14
595.308	0.14
595.754	0.14
596.2	0.14
596.646	0.14
597.092	0.14
597.538	0.14
597.984	0.14
598.43	0.14
598.876	0.14
599.321	0.14
599.767	0.14
600.213	0.14
600.659	0.14
601.104	0.14
601.55	0.13
601.995	0.13
602.441	0.13
602.887	0.13
603.332	0.13
603.778	0.13
604.223	0.14
604.668	0.14
605.114	0.14
605.559	0.14
606.005	0.14
606.45	0.14
606.895	0.13
607.341	0.13
607.786	0.13
608.231	0.13
608.676	0.13
609.121	0.13
609.566	0.13
610.012	0.13
610.457	0.13
610.902	0.13
611.347	0.13
611.792	0.13
612.237	0.14
612.682	0.14
613.127	0.14
613.571	0.14
614.016	0.14
614.461	0.14
614.906	0.14
615.351	0.14
615.795	0.14
616.24	0.14
616.685	0.14
617.129	0.14
617.574	0.14
618.019	0.14
618.463	0.14
618.908	0.14
619.352	0.14
619.797	0.14
620.241	0.14
620.686	0.14
621.13	0.14
621.574	0.14
622.019	0.14
622.463	0.14
622.907	0.14
623.352	0.14
623.796	0.15
624.24	0.15
624.684	0.15
625.128	0.15
625.572	0.15
626.016	0.15
626.461	0.15
626.905	0.15
627.349	0.15
627.793	0.16
628.236	0.16
628.68	0.16
629.124	0.16
629.568	0.16
630.012	0.16
630.456	0.16
630.9	0.16
631.343	0.16
631.787	0.17
632.231	0.17
632.674	0.17
633.118	0.17
633.562	0.17
634.005	0.17
634.449	0.18
634.892	0.18
635.336	0.18
635.779	0.18
636.223	0.18
636.666	0.19
637.109	0.19
637.553	0.19
637.996	0.19
638.439	0.19
638.883	0.19
639.326	0.2
639.769	0.2
640.212	0.2
640.655	0.2
641.099	0.21
641.542	0.21
641.985	0.21
642.428	0.21
642.871	0.22
643.314	0.22
643.757	0.22
644.2	0.22
644.643	0.23
645.085	0.23
645.528	0.23
645.971	0.24
646.414	0.24
646.857	0.24
647.299	0.25
647.742	0.25
648.185	0.25
648.627	0.26
649.07	0.26
649.513	0.26
649.955	0.27
650.398	0.27
650.84	0.27
651.283	0.28
651.725	0.28
652.168	0.28
652.61	0.29
653.052	0.3
653.495	0.3
653.937	0.23
654.379	0.18
654.821	0.19
655.264	0.19
655.706	0.19
656.148	0.2
656.59	0.2
657.032	0.2
657.474	0.2
657.916	0.2
658.358	0.19
658.8	0.25
659.242	0.33
659.684	0.35
660.126	0.35
660.568	0.35
661.01	0.36
661.452	0.36
661.894	0.37
662.335	0.37
662.777	0.37
663.219	0.38
663.661	0.38
664.102	0.38
664.544	0.39
664.985	0.39
665.427	0.4
665.869	0.4
666.31	0.4
666.752	0.41
667.193	0.41
667.634	0.42
668.076	0.42
668.517	0.42
668.959	0.43
669.4	0.43
669.841	0.44
670.282	0.44
670.724	0.44
671.165	0.45
671.606	0.45
672.047	0.45
672.488	0.45
672.929	0.46
673.37	0.46
673.811	0.46
674.252	0.46
674.693	0.47
675.134	0.47
675.575	0.47
676.016	0.48
676.457	0.48
676.898	0.48
677.339	0.48
677.78	0.48
678.22	0.49
678.661	0.49
679.102	0.49
679.542	0.49
679.983	0.49
680.424	0.49
680.864	0.49
681.305	0.5
681.745	0.5
682.186	0.5
682.626	0.5
683.067	0.5
683.507	0.5
683.948	0.5
684.388	0.5
684.828	0.5
685.269	0.5
685.709	0.5
686.149	0.5
686.589	0.5
687.029	0.5
687.47	0.5
687.91	0.5
688.35	0.5
688.79	0.5
689.23	0.5
689.67	0.5
690.11	0.5
690.55	0.5
690.99	0.5
691.43	0.5
691.87	0.5
692.31	0.5
692.749	0.49
693.189	0.49
693.629	0.49
694.069	0.49
694.508	0.49
694.948	0.49
695.388	0.48
695.827	0.48
696.267	0.48
696.706	0.48
697.146	0.47
697.586	0.47
698.025	0.47
698.464	0.47
698.904	0.46
699.343	0.46
699.783	0.46
700.222	0.46
700.661	0.45
701.101	0.45
701.54	0.45
701.979	0.45
702.418	0.45
702.857	0.44
703.297	0.44
703.736	0.44
704.175	0.44
704.614	0.43
705.053	0.43
705.492	0.43
705.931	0.43
706.37	0.42
706.809	0.42
707.248	0.42
707.687	0.41
708.125	0.41
708.564	0.41
709.003	0.4
709.442	0.4
709.88	0.4
710.319	0.39
710.758	0.39
711.196	0.39
711.635	0.38
712.074	0.38
712.512	0.38
712.951	0.37
713.389	0.37
713.828	0.37
714.266	0.36
714.705	0.36
715.143	0.36
715.581	0.35
716.02	0.35
716.458	0.35
716.896	0.35
717.334	0.34
717.773	0.34
718.211	0.34
718.649	0.33
719.087	0.33
719.525	0.33
719.963	0.32
720.401	0.32
720.839	0.31
721.277	0.31
721.715	0.31
722.153	0.3
722.591	0.3
723.029	0.3
723.467	0.29
723.905	0.29
724.342	0.29
724.78	0.28
725.218	0.28
725.656	0.28
726.093	0.28
726.531	0.27
726.969	0.27
727.406	0.27
727.844	0.27
728.281	0.26
728.719	0.26
729.156	0.26
729.594	0.26
730.031	0.25
730.469	0.25
730.906	0.25
731.343	0.25
731.781	0.24
732.218	0.24
732.655	0.24
733.092	0.23
733.53	0.23
733.967	0.23
734.404	0.23
734.841	0.22
735.278	0.22
735.715	0.22
736.152	0.22
736.589	0.21
737.026	0.21
737.463	0.21
737.9	0.21
738.337	0.21
738.774	0.2
739.211	0.2
739.647	0.2
740.084	0.2
740.521	0.2
740.958	0.2
741.394	0.19
741.831	0.19
742.268	0.19
742.704	0.19
743.141	0.19
743.577	0.18
744.014	0.18
744.45	0.18
744.887	0.18
745.323	0.17
745.76	0.17
746.196	0.17
746.632	0.17
747.069	0.17
747.505	0.16
747.941	0.16
748.378	0.16
748.814	0.16
749.25	0.16
749.686	0.15
750.122	0.15
750.558	0.15
750.994	0.15
751.43	0.15
751.866	0.14
752.302	0.14
752.738	0.14
753.174	0.14
753.61	0.14
754.046	0.14
754.482	0.14
754.918	0.14
755.354	0.13
755.789	0.13
756.225	0.13
756.661	0.13
757.096	0.13
757.532	0.13
757.968	0.13
758.403	0.13
758.839	0.13
759.274	0.12
759.71	0.12
760.145	0.12
760.581	0.12
761.016	0.12
761.452	0.12
761.887	0.12
762.322	0.12
762.758	0.12
763.193	0.11
763.628	0.11
764.063	0.11
764.499	0.11
764.934	0.11
765.369	0.11
765.804	0.11
766.239	0.11
766.674	0.11
767.109	0.1
767.544	0.1
767.979	0.1
768.414	0.1
768.849	0.1
769.284	0.1
769.719	0.1
770.154	0.1
770.588	0.09
771.023	0.09
771.458	0.09
771.893	0.09
772.327	0.09
772.762	0.09
773.197	0.09
773.631	0.09
774.066	0.09
774.5	0.09
774.935	0.09
775.369	0.09
775.804	0.09
776.238	0.09
776.673	0.09
777.107	0.09
777.541	0.08
777.976	0.08
778.41	0.08
778.844	0.08
779.279	0.08
779.713	0.08
780.147	0.08
780.581	0.08
781.015	0.07
781.449	0.07
781.883	0.07
782.317	0.07
782.751	0.07
783.185	0.07
783.619	0.07
784.053	0.07
784.487	0.07
784.921	0.07
785.355	0.07
785.789	0.07
786.223	0.07
786.656	0.07
787.09	0.07
787.524	0.07
787.957	0.07
788.391	0.06
788.825	0.06
789.258	0.06
789.692	0.06
790.125	0.06
790.559	0.06
790.992	0.06
791.426	0.06
791.859	0.06
792.293	0.06
792.726	0.06
793.159	0.06
793.593	0.06
794.026	0.06
794.459	0.06
794.892	0.06
795.326	0.06
795.759	0.06
796.192	0.06
796.625	0.05
797.058	0.05
797.491	0.05
797.924	0.06
798.357	0.06
798.79	0.06
799.223	0.06
799.656	0.06
800.089	0.05
800.522	0.05
800.955	0.05
801.387	0.05
801.82	0.05
802.253	0.05
802.686	0.05
803.118	0.05
803.551	0.05
803.984	0.05
804.416	0.05
804.849	0.05
805.281	0.05
805.714	0.05
806.146	0.05
806.579	0.05
807.011	0.05
807.444	0.05
807.876	0.05
808.308	0.05
808.741	0.05
809.173	0.05
809.605	0.05
810.037	0.05
810.47	0.05
810.902	0.05
811.334	0.05
811.766	0.05
812.198	0.05
812.63	0.05
813.062	0.04
813.494	0.04
813.926	0.04
814.358	0.04
814.79	0.04
815.222	0.04
815.654	0.04
816.086	0.04
816.518	0.04
816.949	0.04
817.381	0.04
817.813	0.04
818.245	0.04
818.676	0.04
819.108	0.04
819.54	0.04
819.971	0.04
820.403	0.04
820.834	0.04
821.266	0.04
821.697	0.04
822.129	0.04
822.56	0.04
822.991	0.04
823.423	0.04
823.854	0.04
824.286	0.04
824.717	0.04
825.148	0.04
825.579	0.04
826.01	0.04
826.442	0.04
826.873	0.04
827.304	0.04
827.735	0.04
828.166	0.04
828.597	0.04
829.028	0.04
829.459	0.04
829.89	0.04
830.321	0.04
830.752	0.04
831.183	0.04
831.613	0.04
832.044	0.04
832.475	0.04
832.906	0.03
833.336	0.03
833.767	0.03
834.198	0.03
834.628	0.03
835.059	0.03
835.49	0.03
835.92	0.03
836.351	0.03
836.781	0.03
837.212	0.03
837.642	0.03
838.072	0.03
838.503	0.03
838.933	0.03
839.364	0.03
839.794	0.03
840.224	0.03
840.654	0.03
841.085	0.03
841.515	0.03
841.945	0.03
842.375	0.03
842.805	0.03
843.235	0.03
843.665	0.03
844.095	0.03
844.525	0.03
844.955	0.03
845.385	0.03
845.815	0.03
846.245	0.03
846.675	0.03
847.105	0.03
847.534	0.03
847.964	0.03
848.394	0.03
848.824	0.03
849.253	0.03
849.683	0.03
850.112	0.03
850.542	0.03
850.972	0.03
851.401	0.03
851.831	0.03
852.26	0.03
852.69	0.03
853.119	0.03
853.548	0.03
853.978	0.03
854.407	0.03
854.836	0.03
855.266	0.03
855.695	0.03
856.124	0.03
856.553	0.03
856.983	0.03
857.412	0.02
857.841	0.02
858.27	0.02
858.699	0.02
859.128	0.02
859.557	0.02
859.986	0.02
860.415	0.02
860.844	0.02
861.273	0.02
861.702	0.02
862.13	0.02
862.559	0.02
862.988	0.02
863.417	0.02
863.845	0.02
864.274	0.02
864.703	0.02
865.131	0.02
865.56	0.02
865.989	0.02
866.417	0.02
866.846	0.02
867.274	0.02
867.703	0.02
868.131	0.02
868.559	0.02
868.988	0.02
869.416	0.02
869.844	0.02
870.273	0.02
870.701	0.02
871.129	0.02
871.557	0.02
871.986	0.02
872.414	0.02
872.842	0.02
873.27	0.02
873.698	0.02
874.126	0.02
874.554	0.02
874.982	0.02
875.41	0.02
875.838	0.02
876.266	0.02
876.694	0.02
877.122	0.02
877.549	0.02
877.977	0.02
878.405	0.02
878.833	0.02
879.26	0.02
879.688	0.02
880.116	0.02
880.543	0.01
880.971	0.01
881.399	0.01
881.826	0.01
882.254	0.01
882.681	0.01
883.109	0.01
883.536	0.01
883.963	0.01
884.391	0.01
884.818	0.01
885.245	0.01
885.673	0.01
886.1	0.01
886.527	0.01
886.954	0.01
887.381	0.01
887.809	0.01
888.236	0.01
888.663	0.01
889.09	0.01
889.517	0.01
889.944	0.01
890.371	0.01
890.798	0.01
891.225	0.01
891.652	0.01
892.078	0.01
892.505	0.01
892.932	0.01
893.359	0.01
893.786	0.01
894.212	0.01
894.639	0.01
895.066	0.01
895.492	0.02
895.919	0.02
896.346	0.02
896.772	0.02
897.199	0.02
897.625	0.01
898.052	0.01
898.478	0.01
898.904	0.01
899.331	0.01
899.757	0.01
900.183	0.01
900.61	0.01
901.036	0.01
901.462	0.01
901.888	0.01
902.315	0.01
902.741	0.01
903.167	0.01
903.593	0.01
904.019	0.01
904.445	0.01
904.871	0.01
905.297	0.01
905.723	0.01
906.149	0.01
906.575	0.01
907.001	0.01
907.427	0.01
907.852	0.01
908.278	0.01
908.704	0.01
909.13	0.01
909.555	0.01
909.981	0.01
910.407	0.01
910.832	0.01
911.258	0.01
911.684	0.01
912.109	0.01
912.535	0.01
912.96	0.01
913.386	0.02
913.811	0.01
914.236	0.01
914.662	0.01
915.087	0.01
915.512	0.01
915.938	0.01
916.363	0.01
916.788	0.01
917.213	0.01
917.639	0.01
918.064	0.01
918.489	0.01
918.914	0.01
919.339	0.01
919.764	0.01
920.189	0.01
920.614	0.02
921.039	0.01
921.464	0.01
921.889	0.01
922.314	0.01
922.738	0.01
923.163	0.01
923.588	0.01
924.013	0.01
924.437	0.01
924.862	0.01
925.287	0.01
925.711	0.01
926.136	0.01
926.561	0.01
926.985	0.01
927.41	0.01
927.834	0.01
928.259	0.01
928.683	0.01
929.108	0.01
929.532	0.01
929.956	0.01
930.381	0.01
930.805	0.01
931.229	0.01
931.653	0.01
932.078	0.01
932.502	0.01
932.926	0.01
933.35	0.01
933.774	0.01
934.198	0.01
934.622	0.01
935.046	0.01
935.47	0.01
935.894	0.01
936.318	0.01
936.742	0.01
937.166	0.01
937.59	0.01
938.014	0.01
938.437	0.01
938.861	0.01
939.285	0.01
939.709	0.01
940.132	0.01
940.556	0.01
940.98	0.01
941.403	0.01
941.827	0.01
942.25	0.01
942.674	0.01
943.097	0.01
943.521	0.01
943.944	0.01
944.368	0.01
944.791	0.01
945.214	0.01
945.638	0.01
946.061	0.01
946.484	0.01
946.907	0.01
947.331	0.01
947.754	0.01
948.177	0.01
948.6	0.01
949.023	0.01
949.446	0.01
949.869	0.01
950.292	0.01
950.715	0.01
951.138	0.01
951.561	0.01
951.984	0.01
952.407	0.01
952.83	0.01
953.252	0.01
953.675	0.01
954.098	0.01
954.521	0.01
954.943	0.01
955.366	0.01
955.789	0.01
956.211	0.01
956.634	0.01
957.056	0.01
957.479	0.01
957.902	0.01
958.324	0.01
958.746	0.01
959.169	0.01
959.591	0.01
960.014	0.01
960.436	0.01
960.858	0.01
961.281	0.01
961.703	0
962.125	0
962.547	0
962.969	0
963.391	0
963.814	0
964.236	0.01
964.658	0.01
965.08	0.01
965.502	0.01
965.924	0.01
966.346	0.01
966.768	0.01
967.189	0.01
967.611	0.01
968.033	0.01
968.455	0.01
968.877	0.01
969.298	0.01
969.72	0.01
970.142	0.01
970.563	0.01
970.985	0
971.407	0
971.828	0
972.25	0
972.671	0
973.093	0
973.514	0
973.936	0
974.357	0.01
974.778	0.01
975.2	0.01
975.621	0.01
976.042	0.01
976.464	0.01
976.885	0.01
977.306	0.01
977.727	0.01
978.148	0.01
978.57	0.01
978.991	0.01
979.412	0.01
979.833	0.01
980.254	0.01
980.675	0.01
981.096	0.01
981.517	0.01
981.937	0.01
982.358	0.01
982.779	0.01
983.2	0.01
983.621	0
984.042	0
984.462	0
984.883	0
985.304	0
985.724	0
986.145	0
986.565	0.01
986.986	0.01
987.407	0.01
987.827	0.01
988.248	0.01
988.668	0.01
989.088	0.01
989.509	0.01
989.929	0.01
990.35	0.01
990.77	0.01
991.19	0.01
991.61	0.01
992.031	0.01
992.451	0.01
992.871	0.01
993.291	0.01
993.711	0.01
994.131	0.01
994.551	0.01
994.971	0.01
995.391	0.01
995.811	0.01
996.231	0
996.651	0
997.071	0
997.491	0
997.911	0
998.331	0
998.75	0
999.17	0
999.59	0
1000.009	0
1000.429	0
1000.849	0
1001.268	0
1001.688	0.01
1002.107	0.01
1002.527	0.01
1002.946	0.01
1003.366	0.01
1003.785	0.01
1004.205	0.01
1004.624	0.01
1005.044	0.01
1005.463	0.01
1005.882	0.01
1006.301	0.01
1006.721	0.01
1007.14	0.01
1007.559	0.01
1007.978	0.01
1008.397	0.01
1008.816	0.01
1009.235	0.01
1009.655	0.01
1010.074	0.01
1010.492	0.01
1010.911	0.01
1011.33	0.01
1011.749	0.01
1012.168	0.01
1012.587	0.01
1013.006	0.01
1013.425	0.01
1013.843	0.01
1014.262	0.01
1014.681	0.01
1015.099	0.01
1015.518	0.01
1015.937	0.01
1016.355	0.01
1016.774	0
1017.192	0
1017.611	0
1018.029	0
1018.448	0
1018.866	0
1019.285	0
1019.703	0
1020.121	0
1020.54	0
1020.958	-0
1021.376	-0
1021.794	-0
1022.213	-0
1022.631	-0
1023.049	-0
1023.467	-0
1023.885	-0
1024.303	-0
1024.721	-0
1025.139	-0
1025.557	-0
1025.975	-0.01
1026.393	-0.01
1026.811	-0.01
1027.229	-0.01
1027.647	-0.01
1028.065	-0.01
1028.482	-0.01
1028.9	-0.01
1029.318	-0.01
1029.735	-0.01
1030.153	-0.01
1030.571	-0.01
1030.988	-0.01
1031.406	-0.01
1031.823	-0.01
1032.241	-0.01
1032.659	-0.01
1033.076	-0.01
1033.493	-0.01
1033.911	-0.01
1034.328	-0.01
1034.746	-0.01
1035.163	-0.01
1035.58	-0.01
1035.997	-0.01
1036.415	-0.01
1036.832	-0.01
1037.249	-0.02
1037.666	-0.02
1038.083	-0.02
1038.501	-0.02
1038.918	-0.02
1039.335	-0.01
1039.752	-0.01
1040.169	-0.01
1040.586	-0.01
1041.003	-0.01
1041.419	-0.01
1041.836	-0.01
1042.253	-0.01
1042.67	-0.01
1043.087	-0.01
1043.504	-0.01
1043.92	-0.01
1044.337	-0.01
1044.754	-0.01
1045.17	-0.01
1045.587	-0.01
1046.004	-0.02
1046.42	-0.02
1046.837	-0.02
1047.253	-0.02
1047.67	-0.02
1048.086	-0.02
1048.503	-0.02
1048.919	-0.02
1049.335	-0.02
1049.752	-0.02
1050.168	-0.02
1050.584	-0.02
1051.001	-0.02
1051.417	-0.02
1051.833	-0.03
1052.249	-0.03
1052.665	-0.03
1053.081	-0.03
1053.497	-0.03
1053.914	-0.03
1054.33	-0.03
1054.746	-0.03
1055.162	-0.03
1055.578	-0.03
1055.993	-0.03
1056.409	-0.03
1056.825	-0.03
1057.241	-0.03
1057.657	-0.03
1058.073	-0.03
1058.488	-0.03
1058.904	-0.03
1059.32	-0.03
1059.736	-0.03
1060.151	-0.03
1060.567	-0.03
1060.982	-0.03
1061.398	-0.03
1061.813	-0.03
1062.229	-0.03
1062.644	-0.03
1063.06	-0.03
1063.475	-0.03
1063.891	-0.03
1064.306	-0.03
1064.721	-0.03
1065.137	-0.03
1065.552	-0.03
1065.967	-0.03
1066.382	-0.03
1066.798	-0.03
1067.213	-0.03
1067.628	-0.03
1068.043	-0.03
1068.458	-0.03
1068.873	-0.03
1069.288	-0.03
1069.703	-0.03
1070.118	-0.03
1070.533	-0.03
1070.948	-0.03
1071.363	-0.03
1071.778	-0.03
1072.193	-0.03
1072.607	-0.03
1073.022	-0.03
1073.437	-0.03
1073.852	-0.03
1074.266	-0.03
1074.681	-0.03
1075.096	-0.03
1075.51	-0.03
1075.925	-0.03
1076.339	-0.04
1076.754	-0.04
1077.168	-0.04
1077.583	-0.04
1077.997	-0.04
1078.412	-0.04
1078.826	-0.04
1079.24	-0.04
1079.655	-0.04
1080.069	-0.04
1080.483	-0.04
1080.897	-0.04
1081.312	-0.04
1081.726	-0.04
1082.14	-0.04
1082.554	-0.04
1082.968	-0.04
1083.382	-0.04
1083.796	-0.04
1084.21	-0.04
1084.624	-0.04
1085.038	-0.04
1085.452	-0.04
1085.866	-0.04
1086.28	-0.04
1086.694	-0.04
1087.108	-0.04
1087.521	-0.04
1087.935	-0.04
1088.349	-0.04
1088.763	-0.04
1089.176	-0.04
1089.59	-0.04
1090.004	-0.04
1090.417	-0.04
1090.831	-0.05
1091.244	-0.04
1091.658	-0.04
1092.071	-0.04
1092.485	-0.05
1092.898	-0.05
1093.312	-0.04
1093.725	-0.04
1094.138	-0.05
1094.552	-0.05
1094.965	-0.05
1095.378	-0.05
1095.791	-0.05
1096.205	-0.05
1096.618	-0.05
1097.031	-0.05
1097.444	-0.05
1097.857	-0.05
1098.27	-0.05
1098.683	-0.05
1099.096	-0.06
1099.509	-0.06
1099.922	-0.06
1100.335	-0.06
1100.748	-0.06
1101.161	-0.07
1101.574	-0.07
1101.986	-0.07
1102.399	-0.07
1102.812	-0.07
1103.225	-0.07
1103.637	-0.08
1104.05	-0.08
1104.463	-0.08
1104.875	-0.08
1105.288	-0.08
1105.7	-0.08
1106.113	-0.08
1106.525	-0.09
1106.938	-0.09
1107.35	-0.09
1107.763	-0.09
1108.175	-0.09
1108.588	-0.1
1109	-0.1
1109.412	-0.1
1109.824	-0.11
1110.237	-0.11
1110.649	-0.11
1111.061	-0.11
