Data from redip-kinet-2-5a_Absorbance__4__00004.txt Node

Date: Fri Apr 12 13:45:38 CEST 2024
User: Laser008
Spectrometer: MAYP115816
Trigger mode: 0
Integration Time (sec): 2.000000E-1
Scans to average: 10
Electric dark correction enabled: true
Nonlinearity correction enabled: true
Boxcar width: 5
XAxis mode: Wavelengths
Number of Pixels in Spectrum: 2068
>>>>>Begin Spectral Data<<<<<
198.914	-2.5
199.384	-2.34
199.855	-2.2
200.325	-2.09
200.796	-2.02
201.266	-1.96
201.737	-1.89
202.207	-1.83
202.677	-1.77
203.147	-1.73
203.618	-1.7
204.088	-1.67
204.558	-1.65
205.028	-1.64
205.498	-1.64
205.968	-1.63
206.439	-1.63
206.909	-1.63
207.379	-1.62
207.849	-1.62
208.319	-1.62
208.789	-1.61
209.258	-1.61
209.728	-1.61
210.198	-1.61
210.668	-1.61
211.138	-1.6
211.608	-1.6
212.077	-1.6
212.547	-1.6
213.017	-1.6
213.486	-1.6
213.956	-1.6
214.426	-1.6
214.895	-1.6
215.365	-1.59
215.834	-1.59
216.304	-1.59
216.773	-1.59
217.243	-1.59
217.712	-1.58
218.181	-1.58
218.651	-1.58
219.12	-1.58
219.589	-1.57
220.058	-1.57
220.528	-1.57
220.997	-1.56
221.466	-1.56
221.935	-1.55
222.404	-1.55
222.873	-1.54
223.342	-1.54
223.812	-1.53
224.281	-1.52
224.749	-1.51
225.218	-1.51
225.687	-1.5
226.156	-1.49
226.625	-1.47
227.094	-1.46
227.563	-1.44
228.031	-1.42
228.5	-1.4
228.969	-1.37
229.438	-1.34
229.906	-1.31
230.375	-1.28
230.844	-1.24
231.312	-1.2
231.781	-1.16
232.249	-1.11
232.718	-1.06
233.186	-1.02
233.655	-0.97
234.123	-0.92
234.591	-0.87
235.06	-0.82
235.528	-0.77
235.996	-0.72
236.465	-0.67
236.933	-0.63
237.401	-0.58
237.869	-0.54
238.337	-0.5
238.805	-0.47
239.274	-0.43
239.742	-0.4
240.21	-0.36
240.678	-0.33
241.146	-0.31
241.614	-0.28
242.081	-0.25
242.549	-0.23
243.017	-0.21
243.485	-0.19
243.953	-0.17
244.421	-0.15
244.888	-0.14
245.356	-0.12
245.824	-0.11
246.291	-0.09
246.759	-0.08
247.227	-0.07
247.694	-0.06
248.162	-0.05
248.629	-0.04
249.097	-0.03
249.564	-0.02
250.032	-0.01
250.499	-0
250.967	0
251.434	0.01
251.901	0.02
252.369	0.03
252.836	0.03
253.303	0.04
253.77	0.04
254.237	0.05
254.705	0.05
255.172	0.06
255.639	0.06
256.106	0.07
256.573	0.07
257.04	0.07
257.507	0.08
257.974	0.08
258.441	0.08
258.908	0.08
259.375	0.09
259.841	0.09
260.308	0.09
260.775	0.09
261.242	0.09
261.709	0.09
262.175	0.09
262.642	0.1
263.109	0.1
263.575	0.1
264.042	0.1
264.508	0.1
264.975	0.1
265.441	0.1
265.908	0.1
266.374	0.1
266.841	0.1
267.307	0.1
267.773	0.1
268.24	0.1
268.706	0.1
269.172	0.1
269.639	0.1
270.105	0.1
270.571	0.1
271.037	0.1
271.503	0.1
271.969	0.1
272.435	0.1
272.902	0.1
273.368	0.1
273.834	0.1
274.3	0.1
274.765	0.1
275.231	0.09
275.697	0.09
276.163	0.09
276.629	0.09
277.095	0.09
277.56	0.09
278.026	0.09
278.492	0.09
278.958	0.08
279.423	0.08
279.889	0.08
280.354	0.08
280.82	0.08
281.286	0.08
281.751	0.08
282.217	0.08
282.682	0.08
283.147	0.09
283.613	0.09
284.078	0.09
284.544	0.08
285.009	0.08
285.474	0.08
285.939	0.08
286.405	0.08
286.87	0.08
287.335	0.08
287.8	0.08
288.265	0.08
288.73	0.08
289.195	0.08
289.66	0.08
290.125	0.08
290.59	0.08
291.055	0.08
291.52	0.08
291.985	0.08
292.45	0.08
292.915	0.08
293.38	0.08
293.844	0.08
294.309	0.08
294.774	0.08
295.239	0.08
295.703	0.08
296.168	0.08
296.632	0.08
297.097	0.08
297.562	0.08
298.026	0.08
298.491	0.08
298.955	0.08
299.419	0.08
299.884	0.08
300.348	0.08
300.813	0.08
301.277	0.08
301.741	0.08
302.205	0.08
302.67	0.08
303.134	0.08
303.598	0.08
304.062	0.08
304.526	0.08
304.99	0.08
305.454	0.08
305.919	0.08
306.383	0.08
306.847	0.08
307.31	0.08
307.774	0.08
308.238	0.08
308.702	0.08
309.166	0.08
309.63	0.08
310.094	0.08
310.557	0.08
311.021	0.08
311.485	0.08
311.948	0.08
312.412	0.08
312.876	0.08
313.339	0.08
313.803	0.08
314.266	0.08
314.73	0.08
315.193	0.08
315.657	0.08
316.12	0.08
316.584	0.08
317.047	0.08
317.51	0.08
317.973	0.08
318.437	0.08
318.9	0.08
319.363	0.08
319.826	0.08
320.29	0.08
320.753	0.07
321.216	0.07
321.679	0.07
322.142	0.07
322.605	0.07
323.068	0.07
323.531	0.07
323.994	0.07
324.457	0.07
324.92	0.07
325.382	0.07
325.845	0.07
326.308	0.07
326.771	0.07
327.233	0.07
327.696	0.07
328.159	0.07
328.622	0.07
329.084	0.07
329.547	0.07
330.009	0.07
330.472	0.07
330.934	0.07
331.397	0.07
331.859	0.07
332.322	0.07
332.784	0.07
333.246	0.06
333.709	0.06
334.171	0.06
334.633	0.06
335.096	0.06
335.558	0.06
336.02	0.06
336.482	0.06
336.944	0.06
337.406	0.06
337.868	0.06
338.331	0.06
338.793	0.06
339.255	0.06
339.717	0.06
340.178	0.06
340.64	0.06
341.102	0.06
341.564	0.06
342.026	0.06
342.488	0.06
342.949	0.06
343.411	0.06
343.873	0.06
344.335	0.06
344.796	0.06
345.258	0.05
345.719	0.05
346.181	0.05
346.643	0.05
347.104	0.05
347.566	0.05
348.027	0.05
348.488	0.05
348.95	0.05
349.411	0.05
349.873	0.05
350.334	0.05
350.795	0.05
351.256	0.04
351.718	0.04
352.179	0.04
352.64	0.04
353.101	0.04
353.562	0.04
354.023	0.04
354.484	0.04
354.945	0.03
355.406	0.03
355.867	0.03
356.328	0.03
356.789	0.03
357.25	0.03
357.711	0.03
358.172	0.03
358.633	0.03
359.093	0.03
359.554	0.04
360.015	0.04
360.476	0.04
360.936	0.04
361.397	0.04
361.858	0.04
362.318	0.04
362.779	0.04
363.239	0.04
363.7	0.04
364.16	0.04
364.621	0.04
365.081	0.04
365.541	0.04
366.002	0.04
366.462	0.04
366.922	0.04
367.383	0.04
367.843	0.04
368.303	0.04
368.763	0.04
369.223	0.03
369.684	0.03
370.144	0.03
370.604	0.03
371.064	0.03
371.524	0.03
371.984	0.03
372.444	0.03
372.904	0.03
373.363	0.03
373.823	0.03
374.283	0.03
374.743	0.03
375.203	0.03
375.663	0.03
376.122	0.03
376.582	0.03
377.042	0.03
377.501	0.03
377.961	0.04
378.42	0.04
378.88	0.04
379.34	0.04
379.799	0.04
380.259	0.04
380.718	0.04
381.177	0.04
381.637	0.04
382.096	0.04
382.555	0.04
383.015	0.03
383.474	0.03
383.933	0.03
384.393	0.03
384.852	0.03
385.311	0.03
385.77	0.03
386.229	0.03
386.688	0.03
387.147	0.03
387.606	0.03
388.065	0.03
388.524	0.03
388.983	0.03
389.442	0.03
389.901	0.03
390.36	0.04
390.819	0.04
391.277	0.04
391.736	0.04
392.195	0.04
392.654	0.04
393.112	0.04
393.571	0.04
394.03	0.04
394.488	0.04
394.947	0.04
395.405	0.04
395.864	0.04
396.322	0.04
396.781	0.04
397.239	0.04
397.698	0.04
398.156	0.04
398.614	0.04
399.073	0.04
399.531	0.04
399.989	0.04
400.447	0.04
400.905	0.04
401.364	0.04
401.822	0.03
402.28	0.03
402.738	0.03
403.196	0.03
403.654	0.03
404.112	0.03
404.57	0.03
405.028	0.03
405.486	0.03
405.944	0.03
406.402	0.03
406.859	0.03
407.317	0.03
407.775	0.03
408.233	0.03
408.691	0.03
409.148	0.03
409.606	0.03
410.064	0.03
410.521	0.03
410.979	0.03
411.436	0.03
411.894	0.03
412.351	0.03
412.809	0.03
413.266	0.03
413.724	0.03
414.181	0.03
414.638	0.03
415.096	0.03
415.553	0.03
416.01	0.03
416.467	0.02
416.925	0.02
417.382	0.02
417.839	0.02
418.296	0.02
418.753	0.02
419.21	0.03
419.667	0.03
420.124	0.03
420.581	0.03
421.038	0.03
421.495	0.03
421.952	0.03
422.409	0.03
422.866	0.03
423.322	0.03
423.779	0.03
424.236	0.03
424.693	0.03
425.149	0.03
425.606	0.03
426.063	0.03
426.519	0.03
426.976	0.03
427.433	0.03
427.889	0.03
428.346	0.03
428.802	0.03
429.258	0.03
429.715	0.03
430.171	0.03
430.628	0.03
431.084	0.03
431.54	0.03
431.997	0.03
432.453	0.03
432.909	0.03
433.365	0.02
433.821	0.02
434.277	0.02
434.734	0.02
435.19	0.02
435.646	0.02
436.102	0.02
436.558	0.02
437.014	0.02
437.47	0.02
437.925	0.02
438.381	0.02
438.837	0.02
439.293	0.02
439.749	0.02
440.205	0.02
440.66	0.02
441.116	0.02
441.572	0.02
442.027	0.02
442.483	0.02
442.939	0.02
443.394	0.02
443.85	0.02
444.305	0.02
444.761	0.02
445.216	0.02
445.672	0.02
446.127	0.02
446.582	0.02
447.038	0.02
447.493	0.02
447.948	0.02
448.403	0.02
448.859	0.02
449.314	0.02
449.769	0.02
450.224	0.02
450.679	0.02
451.134	0.02
451.589	0.02
452.044	0.02
452.499	0.02
452.954	0.01
453.409	0.01
453.864	0.01
454.319	0.01
454.774	0.01
455.229	0.01
455.684	0.01
456.138	0.01
456.593	0.01
457.048	0.01
457.503	0.01
457.957	0.01
458.412	0.01
458.866	0.01
459.321	0.01
459.776	0.01
460.23	0.01
460.685	0
461.139	0
461.593	0
462.048	0
462.502	0
462.957	0
463.411	0
463.865	0
464.319	0
464.774	0
465.228	0
465.682	0
466.136	0
466.59	0
467.044	0
467.499	-0
467.953	-0
468.407	-0.01
468.861	-0.01
469.315	-0.01
469.768	-0.02
470.222	-0.02
470.676	-0.02
471.13	-0.02
471.584	-0.02
472.038	-0.02
472.491	-0.02
472.945	-0.02
473.399	-0.02
473.852	-0.02
474.306	-0.02
474.76	-0.01
475.213	-0.01
475.667	-0.01
476.12	-0.01
476.574	-0.01
477.027	-0.01
477.481	-0.01
477.934	-0.01
478.388	-0.02
478.841	-0.02
479.294	-0.02
479.748	-0.02
480.201	-0.01
480.654	-0.01
481.107	-0.01
481.561	-0.01
482.014	-0.01
482.467	-0.01
482.92	-0.01
483.373	-0.01
483.826	-0
484.279	0
484.732	0
485.185	0
485.638	0
486.091	0
486.544	0
486.997	0
487.449	0
487.902	0
488.355	-0
488.808	-0.01
489.26	-0.01
489.713	-0.02
490.166	-0.02
490.618	-0.02
491.071	-0.02
491.523	-0.02
491.976	-0.02
492.429	-0.02
492.881	-0.02
493.333	-0.03
493.786	-0.02
494.238	-0.02
494.691	-0.02
495.143	-0.02
495.595	-0.02
496.048	-0.02
496.5	-0.02
496.952	-0.02
497.404	-0.02
497.856	-0.02
498.309	-0.03
498.761	-0.03
499.213	-0.03
499.665	-0.03
500.117	-0.03
500.569	-0.03
501.021	-0.03
501.473	-0.03
501.925	-0.03
502.377	-0.03
502.828	-0.03
503.28	-0.03
503.732	-0.03
504.184	-0.03
504.636	-0.03
505.087	-0.03
505.539	-0.03
505.991	-0.03
506.442	-0.03
506.894	-0.03
507.345	-0.04
507.797	-0.04
508.249	-0.04
508.7	-0.04
509.151	-0.04
509.603	-0.04
510.054	-0.04
510.506	-0.04
510.957	-0.04
511.408	-0.05
511.86	-0.05
512.311	-0.05
512.762	-0.05
513.213	-0.05
513.665	-0.05
514.116	-0.06
514.567	-0.06
515.018	-0.06
515.469	-0.06
515.92	-0.06
516.371	-0.06
516.822	-0.07
517.273	-0.07
517.724	-0.07
518.175	-0.07
518.626	-0.07
519.076	-0.07
519.527	-0.07
519.978	-0.07
520.429	-0.07
520.88	-0.08
521.33	-0.08
521.781	-0.08
522.232	-0.09
522.682	-0.09
523.133	-0.1
523.583	-0.1
524.034	-0.1
524.484	-0.1
524.935	-0.1
525.385	-0.1
525.836	-0.1
526.286	-0.09
526.736	-0.09
527.187	-0.08
527.637	-0.07
528.087	-0.07
528.538	-0.06
528.988	-0.06
529.438	-0.06
529.888	-0.05
530.338	-0.05
530.788	-0.05
531.238	-0.04
531.688	-0.04
532.139	-0.04
532.589	-0.04
533.038	-0.04
533.488	-0.03
533.938	-0.03
534.388	-0.03
534.838	-0.03
535.288	-0.03
535.738	-0.03
536.187	-0.03
536.637	-0.03
537.087	-0.02
537.537	-0.02
537.986	-0.02
538.436	-0.02
538.885	-0.02
539.335	-0.02
539.785	-0.02
540.234	-0.02
540.684	-0.02
541.133	-0.02
541.582	-0.02
542.032	-0.02
542.481	-0.02
542.931	-0.02
543.38	-0.01
543.829	-0.01
544.278	-0.01
544.728	-0.01
545.177	-0.01
545.626	-0.01
546.075	-0.01
546.524	-0.01
546.973	-0.01
547.422	-0.01
547.871	-0.01
548.32	-0.01
548.769	-0.01
549.218	-0.01
549.667	-0.01
550.116	-0.01
550.565	-0.01
551.014	-0.01
551.463	-0.01
551.911	-0.01
552.36	-0.01
552.809	-0.01
553.258	-0.01
553.706	-0
554.155	-0
554.603	-0
555.052	-0
555.501	-0
555.949	-0.01
556.398	-0.01
556.846	-0.01
557.294	-0.01
557.743	-0.01
558.191	-0.01
558.64	-0.01
559.088	-0.01
559.536	-0.01
559.985	-0
560.433	-0
560.881	0
561.329	0
561.777	0.01
562.225	0.01
562.674	0.01
563.122	0.01
563.57	0.01
564.018	0.01
564.466	0.01
564.914	0
565.362	0.01
565.809	0.01
566.257	0.01
566.705	0.01
567.153	0.02
567.601	0.02
568.048	0.03
568.496	0.03
568.944	0.04
569.392	0.05
569.839	0.05
570.287	0.06
570.734	0.06
571.182	0.07
571.63	0.07
572.077	0.07
572.525	0.08
572.972	0.08
573.419	0.08
573.867	0.08
574.314	0.09
574.761	0.09
575.209	0.09
575.656	0.09
576.103	0.1
576.551	0.1
576.998	0.1
577.445	0.1
577.892	0.1
578.339	0.1
578.786	0.1
579.233	0.1
579.68	0.11
580.127	0.11
580.574	0.11
581.021	0.11
581.468	0.1
581.915	0.1
582.362	0.1
582.809	0.11
583.255	0.11
583.702	0.11
584.149	0.11
584.596	0.1
585.042	0.1
585.489	0.1
585.936	0.1
586.382	0.1
586.829	0.1
587.275	0.1
587.722	0.1
588.168	0.09
588.615	0.09
589.061	0.09
589.508	0.09
589.954	0.08
590.4	0.08
590.847	0.08
591.293	0.09
591.739	0.09
592.185	0.09
592.632	0.09
593.078	0.09
593.524	0.09
593.97	0.09
594.416	0.09
594.862	0.09
595.308	0.09
595.754	0.09
596.2	0.08
596.646	0.08
597.092	0.09
597.538	0.09
597.984	0.09
598.43	0.09
598.876	0.1
599.321	0.1
599.767	0.1
600.213	0.1
600.659	0.1
601.104	0.09
601.55	0.09
601.995	0.09
602.441	0.09
602.887	0.09
603.332	0.09
603.778	0.09
604.223	0.09
604.668	0.09
605.114	0.09
605.559	0.09
606.005	0.09
606.45	0.09
606.895	0.09
607.341	0.09
607.786	0.09
608.231	0.09
608.676	0.09
609.121	0.09
609.566	0.09
610.012	0.08
610.457	0.08
610.902	0.08
611.347	0.08
611.792	0.08
612.237	0.08
612.682	0.08
613.127	0.08
613.571	0.08
614.016	0.08
614.461	0.08
614.906	0.08
615.351	0.08
615.795	0.08
616.24	0.07
616.685	0.07
617.129	0.07
617.574	0.07
618.019	0.06
618.463	0.06
618.908	0.06
619.352	0.05
619.797	0.05
620.241	0.06
620.686	0.06
621.13	0.06
621.574	0.06
622.019	0.06
622.463	0.06
622.907	0.06
623.352	0.06
623.796	0.06
624.24	0.06
624.684	0.06
625.128	0.05
625.572	0.05
626.016	0.05
626.461	0.05
626.905	0.05
627.349	0.05
627.793	0.04
628.236	0.04
628.68	0.04
629.124	0.04
629.568	0.04
630.012	0.04
630.456	0.03
630.9	0.03
631.343	0.03
631.787	0.03
632.231	0.03
632.674	0.03
633.118	0.02
633.562	0.02
634.005	0.02
634.449	0.02
634.892	0.03
635.336	0.03
635.779	0.03
636.223	0.03
636.666	0.03
637.109	0.03
637.553	0.03
637.996	0.03
638.439	0.03
638.883	0.02
639.326	0.02
639.769	0.02
640.212	0.02
640.655	0.02
641.099	0.02
641.542	0.02
641.985	0.02
642.428	0.02
642.871	0.02
643.314	0.02
643.757	0.02
644.2	0.02
644.643	0.02
645.085	0.02
645.528	0.02
645.971	0.03
646.414	0.03
646.857	0.03
647.299	0.03
647.742	0.03
648.185	0.04
648.627	0.04
649.07	0.04
649.513	0.04
649.955	0.04
650.398	0.04
650.84	0.04
651.283	0.04
651.725	0.04
652.168	0.04
652.61	0.04
653.052	0.04
653.495	0.04
653.937	0.05
654.379	0.05
654.821	0.05
655.264	0.06
655.706	0.06
656.148	0.06
656.59	0.06
657.032	0.06
657.474	0.06
657.916	0.05
658.358	0.05
658.8	0.05
659.242	0.05
659.684	0.04
660.126	0.04
660.568	0.04
661.01	0.04
661.452	0.04
661.894	0.04
662.335	0.04
662.777	0.04
663.219	0.04
663.661	0.04
664.102	0.04
664.544	0.04
664.985	0.04
665.427	0.04
665.869	0.05
666.31	0.05
666.752	0.05
667.193	0.05
667.634	0.05
668.076	0.05
668.517	0.05
668.959	0.05
669.4	0.05
669.841	0.05
670.282	0.06
670.724	0.06
671.165	0.06
671.606	0.06
672.047	0.06
672.488	0.06
672.929	0.06
673.37	0.05
673.811	0.05
674.252	0.05
674.693	0.05
675.134	0.05
675.575	0.05
676.016	0.05
676.457	0.05
676.898	0.05
677.339	0.05
677.78	0.06
678.22	0.06
678.661	0.06
679.102	0.06
679.542	0.06
679.983	0.06
680.424	0.06
680.864	0.06
681.305	0.06
681.745	0.07
682.186	0.07
682.626	0.07
683.067	0.07
683.507	0.07
683.948	0.07
684.388	0.07
684.828	0.07
685.269	0.08
685.709	0.08
686.149	0.08
686.589	0.08
687.029	0.08
687.47	0.08
687.91	0.08
688.35	0.08
688.79	0.08
689.23	0.08
689.67	0.08
690.11	0.08
690.55	0.08
690.99	0.08
691.43	0.08
691.87	0.09
692.31	0.09
692.749	0.09
693.189	0.09
693.629	0.09
694.069	0.09
694.508	0.09
694.948	0.09
695.388	0.09
695.827	0.1
696.267	0.1
696.706	0.1
697.146	0.1
697.586	0.1
698.025	0.1
698.464	0.1
698.904	0.1
699.343	0.1
699.783	0.1
700.222	0.1
700.661	0.1
701.101	0.1
701.54	0.1
701.979	0.1
702.418	0.1
702.857	0.1
703.297	0.1
703.736	0.1
704.175	0.1
704.614	0.1
705.053	0.1
705.492	0.11
705.931	0.11
706.37	0.11
706.809	0.11
707.248	0.11
707.687	0.11
708.125	0.11
708.564	0.11
709.003	0.11
709.442	0.11
709.88	0.1
710.319	0.1
710.758	0.1
711.196	0.1
711.635	0.1
712.074	0.1
712.512	0.1
712.951	0.11
713.389	0.11
713.828	0.11
714.266	0.1
714.705	0.1
715.143	0.1
715.581	0.1
716.02	0.1
716.458	0.1
716.896	0.1
717.334	0.1
717.773	0.1
718.211	0.1
718.649	0.1
719.087	0.1
719.525	0.1
719.963	0.1
720.401	0.1
720.839	0.09
721.277	0.09
721.715	0.09
722.153	0.09
722.591	0.09
723.029	0.09
723.467	0.09
723.905	0.09
724.342	0.09
724.78	0.09
725.218	0.09
725.656	0.09
726.093	0.09
726.531	0.09
726.969	0.09
727.406	0.09
727.844	0.09
728.281	0.09
728.719	0.09
729.156	0.09
729.594	0.09
730.031	0.09
730.469	0.09
730.906	0.09
731.343	0.09
731.781	0.09
732.218	0.09
732.655	0.09
733.092	0.09
733.53	0.09
733.967	0.09
734.404	0.08
734.841	0.08
735.278	0.08
735.715	0.08
736.152	0.08
736.589	0.07
737.026	0.07
737.463	0.07
737.9	0.07
738.337	0.07
738.774	0.07
739.211	0.06
739.647	0.06
740.084	0.06
740.521	0.05
740.958	0.05
741.394	0.05
741.831	0.04
742.268	0.03
742.704	0.03
743.141	0.02
743.577	0.02
744.014	0.02
744.45	0.02
744.887	0.02
745.323	0.02
745.76	0.02
746.196	0.02
746.632	0.02
747.069	0.02
747.505	0.02
747.941	0.03
748.378	0.03
748.814	0.03
749.25	0.03
749.686	0.03
750.122	0.03
750.558	0.04
750.994	0.04
751.43	0.04
751.866	0.04
752.302	0.04
752.738	0.04
753.174	0.04
753.61	0.04
754.046	0.04
754.482	0.04
754.918	0.05
755.354	0.05
755.789	0.05
756.225	0.05
756.661	0.05
757.096	0.05
757.532	0.05
757.968	0.05
758.403	0.05
758.839	0.05
759.274	0.05
759.71	0.05
760.145	0.04
760.581	0.03
761.016	0.03
761.452	0.03
761.887	0.02
762.322	0.02
762.758	0.02
763.193	0.02
763.628	0.01
764.063	0.01
764.499	0.01
764.934	0
765.369	0
765.804	-0
766.239	-0
766.674	-0
767.109	-0
767.544	-0.01
767.979	-0.01
768.414	-0.02
768.849	-0.02
769.284	-0.02
769.719	-0.02
770.154	-0.02
770.588	-0.02
771.023	-0.03
771.458	-0.03
771.893	-0.04
772.327	-0.04
772.762	-0.04
773.197	-0.04
773.631	-0.05
774.066	-0.05
774.5	-0.05
774.935	-0.05
775.369	-0.05
775.804	-0.06
776.238	-0.05
776.673	-0.05
777.107	-0.05
777.541	-0.05
777.976	-0.05
778.41	-0.05
778.844	-0.05
779.279	-0.04
779.713	-0.03
780.147	-0.03
780.581	-0.03
781.015	-0.03
781.449	-0.03
781.883	-0.02
782.317	-0.03
782.751	-0.02
783.185	-0.02
783.619	-0.02
784.053	-0.03
784.487	-0.03
784.921	-0.03
785.355	-0.03
785.789	-0.03
786.223	-0.03
786.656	-0.02
787.09	-0.02
787.524	-0.02
787.957	-0.02
788.391	-0.02
788.825	-0.02
789.258	-0.02
789.692	-0.02
790.125	-0.02
790.559	-0.02
790.992	-0.02
791.426	-0.02
791.859	-0.02
792.293	-0.01
792.726	-0
793.159	-0
793.593	0
794.026	-0
794.459	-0.01
794.892	-0.01
795.326	-0.01
795.759	-0.01
796.192	-0.01
796.625	-0.02
797.058	-0.03
797.491	-0.03
797.924	-0.04
798.357	-0.04
798.79	-0.04
799.223	-0.04
799.656	-0.04
800.089	-0.04
800.522	-0.04
800.955	-0.04
801.387	-0.04
801.82	-0.04
802.253	-0.04
802.686	-0.04
803.118	-0.05
803.551	-0.04
803.984	-0.04
804.416	-0.03
804.849	-0.03
805.281	-0.03
805.714	-0.03
806.146	-0.03
806.579	-0.03
807.011	-0.03
807.444	-0.03
807.876	-0.03
808.308	-0.03
808.741	-0.03
809.173	-0.04
809.605	-0.04
810.037	-0.04
810.47	-0.05
810.902	-0.05
811.334	-0.05
811.766	-0.04
812.198	-0.04
812.63	-0.04
813.062	-0.04
813.494	-0.04
813.926	-0.04
814.358	-0.04
814.79	-0.04
815.222	-0.03
815.654	-0.03
816.086	-0.03
816.518	-0.04
816.949	-0.04
817.381	-0.04
817.813	-0.04
818.245	-0.04
818.676	-0.03
819.108	-0.03
819.54	-0.03
819.971	-0.03
820.403	-0.03
820.834	-0.03
821.266	-0.03
821.697	-0.03
822.129	-0.03
822.56	-0.03
822.991	-0.04
823.423	-0.04
823.854	-0.04
824.286	-0.04
824.717	-0.04
825.148	-0.03
825.579	-0.03
826.01	-0.03
826.442	-0.02
826.873	-0.02
827.304	-0.01
827.735	-0.01
828.166	-0.01
828.597	-0
829.028	0
829.459	0.01
829.89	0.01
830.321	0.01
830.752	0.02
831.183	0.03
831.613	0.04
832.044	0.04
832.475	0.05
832.906	0.05
833.336	0.06
833.767	0.06
834.198	0.07
834.628	0.07
835.059	0.08
835.49	0.08
835.92	0.08
836.351	0.09
836.781	0.09
837.212	0.09
837.642	0.09
838.072	0.09
838.503	0.09
838.933	0.1
839.364	0.1
839.794	0.1
840.224	0.11
840.654	0.11
841.085	0.11
841.515	0.12
841.945	0.12
842.375	0.12
842.805	0.13
843.235	0.13
843.665	0.13
844.095	0.14
844.525	0.14
844.955	0.14
845.385	0.15
845.815	0.15
846.245	0.16
846.675	0.16
847.105	0.16
847.534	0.17
847.964	0.17
848.394	0.18
848.824	0.18
849.253	0.18
849.683	0.19
850.112	0.19
850.542	0.19
850.972	0.19
851.401	0.19
851.831	0.19
852.26	0.2
852.69	0.2
853.119	0.2
853.548	0.2
853.978	0.2
854.407	0.21
854.836	0.21
855.266	0.21
855.695	0.21
856.124	0.21
856.553	0.22
856.983	0.22
857.412	0.22
857.841	0.22
858.27	0.22
858.699	0.22
859.128	0.23
859.557	0.23
859.986	0.23
860.415	0.23
860.844	0.23
861.273	0.24
861.702	0.24
862.13	0.24
862.559	0.24
862.988	0.24
863.417	0.24
863.845	0.25
864.274	0.25
864.703	0.25
865.131	0.25
865.56	0.25
865.989	0.25
866.417	0.25
866.846	0.26
867.274	0.26
867.703	0.26
868.131	0.26
868.559	0.26
868.988	0.26
869.416	0.26
869.844	0.26
870.273	0.27
870.701	0.27
871.129	0.27
871.557	0.27
871.986	0.27
872.414	0.27
872.842	0.27
873.27	0.27
873.698	0.27
874.126	0.27
874.554	0.28
874.982	0.28
875.41	0.28
875.838	0.28
876.266	0.28
876.694	0.28
877.122	0.28
877.549	0.28
877.977	0.28
878.405	0.28
878.833	0.28
879.26	0.28
879.688	0.28
880.116	0.28
880.543	0.28
880.971	0.28
881.399	0.28
881.826	0.27
882.254	0.27
882.681	0.27
883.109	0.27
883.536	0.27
883.963	0.27
884.391	0.28
884.818	0.28
885.245	0.28
885.673	0.28
886.1	0.28
886.527	0.28
886.954	0.28
887.381	0.28
887.809	0.28
888.236	0.29
888.663	0.29
889.09	0.29
889.517	0.29
889.944	0.29
890.371	0.29
890.798	0.29
891.225	0.29
891.652	0.29
892.078	0.29
892.505	0.29
892.932	0.29
893.359	0.29
893.786	0.29
894.212	0.29
894.639	0.29
895.066	0.29
895.492	0.3
895.919	0.3
896.346	0.3
896.772	0.3
897.199	0.3
897.625	0.3
898.052	0.3
898.478	0.3
898.904	0.3
899.331	0.3
899.757	0.3
900.183	0.3
900.61	0.3
901.036	0.3
901.462	0.3
901.888	0.3
902.315	0.3
902.741	0.3
903.167	0.3
903.593	0.3
904.019	0.3
904.445	0.3
904.871	0.3
905.297	0.3
905.723	0.3
906.149	0.3
906.575	0.3
907.001	0.3
907.427	0.3
907.852	0.3
908.278	0.3
908.704	0.31
909.13	0.31
909.555	0.31
909.981	0.31
910.407	0.31
910.832	0.31
911.258	0.31
911.684	0.31
912.109	0.31
912.535	0.31
912.96	0.31
913.386	0.31
913.811	0.31
914.236	0.31
914.662	0.31
915.087	0.31
915.512	0.31
915.938	0.31
916.363	0.31
916.788	0.31
917.213	0.31
917.639	0.31
918.064	0.31
918.489	0.31
918.914	0.31
919.339	0.31
919.764	0.31
920.189	0.32
920.614	0.32
921.039	0.32
921.464	0.32
921.889	0.32
922.314	0.32
922.738	0.32
923.163	0.32
923.588	0.32
924.013	0.32
924.437	0.32
924.862	0.32
925.287	0.32
925.711	0.32
926.136	0.32
926.561	0.32
926.985	0.32
927.41	0.32
927.834	0.32
928.259	0.33
928.683	0.33
929.108	0.33
929.532	0.33
929.956	0.33
930.381	0.33
930.805	0.34
931.229	0.34
931.653	0.34
932.078	0.34
932.502	0.34
932.926	0.34
933.35	0.34
933.774	0.34
934.198	0.34
934.622	0.35
935.046	0.35
935.47	0.35
935.894	0.36
936.318	0.36
936.742	0.36
937.166	0.37
937.59	0.37
938.014	0.38
938.437	0.39
938.861	0.39
939.285	0.4
939.709	0.4
940.132	0.41
940.556	0.42
940.98	0.42
941.403	0.43
941.827	0.43
942.25	0.43
942.674	0.44
943.097	0.44
943.521	0.44
943.944	0.44
944.368	0.44
944.791	0.45
945.214	0.45
945.638	0.44
946.061	0.44
946.484	0.44
946.907	0.44
947.331	0.44
947.754	0.43
948.177	0.43
948.6	0.43
949.023	0.42
949.446	0.42
949.869	0.41
950.292	0.41
950.715	0.4
951.138	0.4
951.561	0.39
951.984	0.39
952.407	0.39
952.83	0.38
953.252	0.38
953.675	0.38
954.098	0.38
954.521	0.38
954.943	0.37
955.366	0.37
955.789	0.37
956.211	0.37
956.634	0.37
957.056	0.37
957.479	0.37
957.902	0.37
958.324	0.37
958.746	0.36
959.169	0.36
959.591	0.36
960.014	0.36
960.436	0.36
960.858	0.36
961.281	0.36
961.703	0.36
962.125	0.36
962.547	0.36
962.969	0.36
963.391	0.36
963.814	0.36
964.236	0.35
964.658	0.35
965.08	0.35
965.502	0.35
965.924	0.35
966.346	0.35
966.768	0.35
967.189	0.35
967.611	0.35
968.033	0.35
968.455	0.35
968.877	0.35
969.298	0.35
969.72	0.35
970.142	0.35
970.563	0.35
970.985	0.35
971.407	0.35
971.828	0.35
972.25	0.35
972.671	0.35
973.093	0.35
973.514	0.35
973.936	0.35
974.357	0.35
974.778	0.35
975.2	0.35
975.621	0.35
976.042	0.35
976.464	0.35
976.885	0.35
977.306	0.35
977.727	0.35
978.148	0.35
978.57	0.35
978.991	0.35
979.412	0.35
979.833	0.35
980.254	0.35
980.675	0.35
981.096	0.35
981.517	0.35
981.937	0.35
982.358	0.35
982.779	0.35
983.2	0.35
983.621	0.35
984.042	0.35
984.462	0.35
984.883	0.35
985.304	0.35
985.724	0.35
986.145	0.35
986.565	0.35
986.986	0.35
987.407	0.36
987.827	0.36
988.248	0.36
988.668	0.36
989.088	0.36
989.509	0.36
989.929	0.36
990.35	0.36
990.77	0.36
991.19	0.36
991.61	0.36
992.031	0.36
992.451	0.36
992.871	0.36
993.291	0.36
993.711	0.36
994.131	0.36
994.551	0.36
994.971	0.35
995.391	0.35
995.811	0.35
996.231	0.35
996.651	0.35
997.071	0.35
997.491	0.35
997.911	0.35
998.331	0.36
998.75	0.36
999.17	0.36
999.59	0.36
1000.009	0.36
1000.429	0.36
1000.849	0.36
1001.268	0.36
1001.688	0.35
1002.107	0.35
1002.527	0.35
1002.946	0.35
1003.366	0.35
1003.785	0.35
1004.205	0.35
1004.624	0.35
1005.044	0.35
1005.463	0.35
1005.882	0.35
1006.301	0.35
1006.721	0.35
1007.14	0.35
1007.559	0.35
1007.978	0.35
1008.397	0.35
1008.816	0.35
1009.235	0.35
1009.655	0.35
1010.074	0.35
1010.492	0.35
1010.911	0.35
1011.33	0.35
1011.749	0.35
1012.168	0.35
1012.587	0.35
1013.006	0.35
1013.425	0.35
1013.843	0.36
1014.262	0.36
1014.681	0.36
1015.099	0.36
1015.518	0.36
1015.937	0.36
1016.355	0.36
1016.774	0.36
1017.192	0.36
1017.611	0.37
1018.029	0.37
1018.448	0.37
1018.866	0.37
1019.285	0.37
1019.703	0.37
1020.121	0.37
1020.54	0.37
1020.958	0.37
1021.376	0.37
1021.794	0.36
1022.213	0.36
1022.631	0.36
1023.049	0.36
1023.467	0.36
1023.885	0.36
1024.303	0.36
1024.721	0.36
1025.139	0.36
1025.557	0.36
1025.975	0.36
1026.393	0.36
1026.811	0.36
1027.229	0.37
1027.647	0.37
1028.065	0.37
1028.482	0.37
1028.9	0.37
1029.318	0.37
1029.735	0.37
1030.153	0.37
1030.571	0.38
1030.988	0.38
1031.406	0.38
1031.823	0.38
1032.241	0.38
1032.659	0.38
1033.076	0.38
1033.493	0.38
1033.911	0.38
1034.328	0.39
1034.746	0.39
1035.163	0.39
1035.58	0.39
1035.997	0.39
1036.415	0.4
1036.832	0.4
1037.249	0.4
1037.666	0.4
1038.083	0.41
1038.501	0.41
1038.918	0.41
1039.335	0.42
1039.752	0.42
1040.169	0.42
1040.586	0.42
1041.003	0.43
1041.419	0.43
1041.836	0.43
1042.253	0.43
1042.67	0.43
1043.087	0.44
1043.504	0.44
1043.92	0.44
1044.337	0.45
1044.754	0.45
1045.17	0.45
1045.587	0.46
1046.004	0.46
1046.42	0.47
1046.837	0.47
1047.253	0.47
1047.67	0.47
1048.086	0.48
1048.503	0.48
1048.919	0.48
1049.335	0.48
1049.752	0.49
1050.168	0.49
1050.584	0.49
1051.001	0.5
1051.417	0.5
1051.833	0.51
1052.249	0.51
1052.665	0.52
1053.081	0.53
1053.497	0.53
1053.914	0.54
1054.33	0.54
1054.746	0.55
1055.162	0.55
1055.578	0.55
1055.993	0.56
1056.409	0.56
1056.825	0.57
1057.241	0.57
1057.657	0.58
1058.073	0.59
1058.488	0.59
1058.904	0.6
1059.32	0.61
1059.736	0.62
1060.151	0.63
1060.567	0.63
1060.982	0.64
1061.398	0.65
1061.813	0.65
1062.229	0.66
1062.644	0.66
1063.06	0.67
1063.475	0.68
1063.891	0.69
1064.306	0.69
1064.721	0.7
1065.137	0.71
1065.552	0.72
1065.967	0.74
1066.382	0.75
1066.798	0.76
1067.213	0.77
1067.628	0.78
1068.043	0.79
1068.458	0.81
1068.873	0.82
1069.288	0.83
1069.703	0.84
1070.118	0.86
1070.533	0.88
1070.948	0.9
1071.363	0.92
1071.778	0.95
1072.193	0.98
1072.607	1.02
1073.022	1.06
1073.437	1.1
1073.852	1.14
1074.266	1.19
1074.681	1.24
1075.096	1.3
1075.51	1.39
1075.925	1.5
1076.339	1.65
1076.754	1.9
1077.168	2.47
1077.583	-0
1077.997	-0
1078.412	-0
1078.826	-0
1079.24	-0
1079.655	-0
1080.069	-0
1080.483	-0
1080.897	-0
1081.312	-0
1081.726	-0
1082.14	-0
1082.554	-0
1082.968	-0
1083.382	-0
1083.796	-0
1084.21	-0
1084.624	-0
1085.038	-0
1085.452	-0
1085.866	-0
1086.28	-0
1086.694	-0
1087.108	-0
1087.521	-0
1087.935	-0
1088.349	-0
1088.763	-0
1089.176	-0
1089.59	-0
1090.004	-0
1090.417	-0
1090.831	-0
1091.244	-0
1091.658	-0
1092.071	-0
1092.485	-0
1092.898	-0
1093.312	-0
1093.725	-0
1094.138	-0
1094.552	-0
1094.965	-0
1095.378	-0
1095.791	-0
1096.205	-0
1096.618	-0
1097.031	-0
1097.444	-0
1097.857	-0
1098.27	-0
1098.683	-0
1099.096	-0
1099.509	-0
1099.922	-0
1100.335	-0
1100.748	-0
1101.161	-0
1101.574	-0
1101.986	-0
1102.399	-0
1102.812	-0
1103.225	-0
1103.637	-0
1104.05	-0
1104.463	-0
1104.875	-0
1105.288	-0
1105.7	-0
1106.113	-0
1106.525	-0
1106.938	-0
1107.35	-0
1107.763	-0
1108.175	-0
1108.588	-0
1109	-0
1109.412	-0
1109.824	-0
1110.237	-0
1110.649	-0
1111.061	-0
