Data from 2024-02-06-100ns-20nr-25nacl-100h2o-7bp2-40to10hyt-dark-0_5cpm_Absorbance__55__00055.txt Node

Date: Tue Feb 06 10:38:40 CET 2024
User: Laser008
Spectrometer: MAYP115816
Trigger mode: 0
Integration Time (sec): 2.000000E-1
Scans to average: 10
Electric dark correction enabled: true
Nonlinearity correction enabled: true
Boxcar width: 5
XAxis mode: Wavelengths
Number of Pixels in Spectrum: 2068
>>>>>Begin Spectral Data<<<<<
198.914	-0.27
199.384	-0.24
199.855	-0.19
200.325	-0.15
200.796	-0.13
201.266	-0.11
201.737	-0.1
202.207	-0.09
202.677	-0.09
203.147	-0.08
203.618	-0.07
204.088	-0.06
204.558	-0.05
205.028	-0.05
205.498	-0.05
205.968	-0.05
206.439	-0.05
206.909	-0.05
207.379	-0.05
207.849	-0.05
208.319	-0.05
208.789	-0.05
209.258	-0.06
209.728	-0.06
210.198	-0.06
210.668	-0.06
211.138	-0.06
211.608	-0.05
212.077	-0.05
212.547	-0.06
213.017	-0.05
213.486	-0.05
213.956	-0.05
214.426	-0.05
214.895	-0.05
215.365	-0.05
215.834	-0.05
216.304	-0.05
216.773	-0.05
217.243	-0.05
217.712	-0.05
218.181	-0.05
218.651	-0.05
219.12	-0.05
219.589	-0.04
220.058	-0.04
220.528	-0.04
220.997	-0.04
221.466	-0.04
221.935	-0.04
222.404	-0.03
222.873	-0.03
223.342	-0.02
223.812	-0.02
224.281	-0.02
224.749	-0.01
225.218	-0.01
225.687	-0
226.156	0.01
226.625	0.02
227.094	0.02
227.563	0.03
228.031	0.04
228.5	0.05
228.969	0.07
229.438	0.09
229.906	0.1
230.375	0.12
230.844	0.14
231.312	0.16
231.781	0.18
232.249	0.2
232.718	0.22
233.186	0.24
233.655	0.26
234.123	0.27
234.591	0.29
235.06	0.31
235.528	0.32
235.996	0.33
236.465	0.35
236.933	0.36
237.401	0.37
237.869	0.38
238.337	0.39
238.805	0.39
239.274	0.4
239.742	0.41
240.21	0.41
240.678	0.42
241.146	0.42
241.614	0.43
242.081	0.43
242.549	0.43
243.017	0.44
243.485	0.44
243.953	0.44
244.421	0.45
244.888	0.45
245.356	0.45
245.824	0.45
246.291	0.46
246.759	0.46
247.227	0.46
247.694	0.46
248.162	0.47
248.629	0.47
249.097	0.47
249.564	0.47
250.032	0.48
250.499	0.48
250.967	0.48
251.434	0.48
251.901	0.49
252.369	0.49
252.836	0.49
253.303	0.49
253.77	0.49
254.237	0.49
254.705	0.49
255.172	0.5
255.639	0.5
256.106	0.5
256.573	0.5
257.04	0.5
257.507	0.5
257.974	0.5
258.441	0.5
258.908	0.5
259.375	0.5
259.841	0.5
260.308	0.5
260.775	0.5
261.242	0.5
261.709	0.5
262.175	0.5
262.642	0.5
263.109	0.5
263.575	0.5
264.042	0.5
264.508	0.5
264.975	0.5
265.441	0.49
265.908	0.49
266.374	0.49
266.841	0.49
267.307	0.49
267.773	0.49
268.24	0.48
268.706	0.48
269.172	0.48
269.639	0.48
270.105	0.48
270.571	0.47
271.037	0.47
271.503	0.47
271.969	0.47
272.435	0.46
272.902	0.46
273.368	0.46
273.834	0.46
274.3	0.45
274.765	0.45
275.231	0.45
275.697	0.45
276.163	0.44
276.629	0.44
277.095	0.44
277.56	0.43
278.026	0.43
278.492	0.43
278.958	0.43
279.423	0.42
279.889	0.42
280.354	0.42
280.82	0.41
281.286	0.41
281.751	0.41
282.217	0.41
282.682	0.4
283.147	0.4
283.613	0.4
284.078	0.4
284.544	0.39
285.009	0.39
285.474	0.39
285.939	0.39
286.405	0.38
286.87	0.38
287.335	0.38
287.8	0.38
288.265	0.38
288.73	0.37
289.195	0.37
289.66	0.37
290.125	0.37
290.59	0.36
291.055	0.36
291.52	0.36
291.985	0.36
292.45	0.36
292.915	0.36
293.38	0.35
293.844	0.35
294.309	0.35
294.774	0.35
295.239	0.35
295.703	0.35
296.168	0.35
296.632	0.34
297.097	0.34
297.562	0.34
298.026	0.34
298.491	0.34
298.955	0.34
299.419	0.34
299.884	0.34
300.348	0.34
300.813	0.33
301.277	0.33
301.741	0.33
302.205	0.33
302.67	0.33
303.134	0.33
303.598	0.33
304.062	0.33
304.526	0.33
304.99	0.33
305.454	0.33
305.919	0.33
306.383	0.32
306.847	0.32
307.31	0.32
307.774	0.32
308.238	0.32
308.702	0.32
309.166	0.32
309.63	0.32
310.094	0.32
310.557	0.32
311.021	0.32
311.485	0.32
311.948	0.31
312.412	0.31
312.876	0.31
313.339	0.31
313.803	0.31
314.266	0.31
314.73	0.31
315.193	0.31
315.657	0.31
316.12	0.31
316.584	0.31
317.047	0.31
317.51	0.31
317.973	0.3
318.437	0.3
318.9	0.3
319.363	0.3
319.826	0.3
320.29	0.3
320.753	0.3
321.216	0.3
321.679	0.3
322.142	0.3
322.605	0.3
323.068	0.3
323.531	0.3
323.994	0.3
324.457	0.29
324.92	0.29
325.382	0.29
325.845	0.29
326.308	0.29
326.771	0.29
327.233	0.29
327.696	0.29
328.159	0.29
328.622	0.29
329.084	0.29
329.547	0.29
330.009	0.29
330.472	0.29
330.934	0.29
331.397	0.29
331.859	0.28
332.322	0.28
332.784	0.28
333.246	0.28
333.709	0.28
334.171	0.28
334.633	0.28
335.096	0.28
335.558	0.28
336.02	0.28
336.482	0.28
336.944	0.28
337.406	0.28
337.868	0.28
338.331	0.28
338.793	0.28
339.255	0.28
339.717	0.28
340.178	0.28
340.64	0.28
341.102	0.27
341.564	0.27
342.026	0.27
342.488	0.27
342.949	0.27
343.411	0.27
343.873	0.27
344.335	0.27
344.796	0.27
345.258	0.27
345.719	0.27
346.181	0.27
346.643	0.27
347.104	0.27
347.566	0.27
348.027	0.27
348.488	0.27
348.95	0.27
349.411	0.27
349.873	0.27
350.334	0.27
350.795	0.27
351.256	0.27
351.718	0.27
352.179	0.27
352.64	0.27
353.101	0.27
353.562	0.27
354.023	0.27
354.484	0.27
354.945	0.27
355.406	0.27
355.867	0.27
356.328	0.27
356.789	0.27
357.25	0.27
357.711	0.27
358.172	0.27
358.633	0.26
359.093	0.26
359.554	0.27
360.015	0.27
360.476	0.26
360.936	0.26
361.397	0.27
361.858	0.26
362.318	0.26
362.779	0.27
363.239	0.27
363.7	0.26
364.16	0.26
364.621	0.26
365.081	0.26
365.541	0.26
366.002	0.26
366.462	0.26
366.922	0.26
367.383	0.26
367.843	0.26
368.303	0.26
368.763	0.26
369.223	0.26
369.684	0.26
370.144	0.26
370.604	0.26
371.064	0.26
371.524	0.26
371.984	0.26
372.444	0.26
372.904	0.26
373.363	0.26
373.823	0.26
374.283	0.26
374.743	0.26
375.203	0.26
375.663	0.26
376.122	0.26
376.582	0.26
377.042	0.26
377.501	0.26
377.961	0.26
378.42	0.26
378.88	0.26
379.34	0.26
379.799	0.26
380.259	0.26
380.718	0.26
381.177	0.26
381.637	0.26
382.096	0.26
382.555	0.26
383.015	0.26
383.474	0.26
383.933	0.25
384.393	0.25
384.852	0.25
385.311	0.25
385.77	0.25
386.229	0.25
386.688	0.25
387.147	0.25
387.606	0.25
388.065	0.25
388.524	0.25
388.983	0.25
389.442	0.25
389.901	0.25
390.36	0.25
390.819	0.25
391.277	0.25
391.736	0.25
392.195	0.25
392.654	0.25
393.112	0.25
393.571	0.25
394.03	0.25
394.488	0.25
394.947	0.25
395.405	0.25
395.864	0.25
396.322	0.25
396.781	0.25
397.239	0.25
397.698	0.25
398.156	0.25
398.614	0.25
399.073	0.25
399.531	0.25
399.989	0.25
400.447	0.25
400.905	0.24
401.364	0.24
401.822	0.24
402.28	0.24
402.738	0.24
403.196	0.24
403.654	0.24
404.112	0.24
404.57	0.24
405.028	0.24
405.486	0.24
405.944	0.24
406.402	0.24
406.859	0.24
407.317	0.24
407.775	0.24
408.233	0.24
408.691	0.24
409.148	0.24
409.606	0.24
410.064	0.24
410.521	0.24
410.979	0.24
411.436	0.24
411.894	0.24
412.351	0.24
412.809	0.24
413.266	0.24
413.724	0.24
414.181	0.24
414.638	0.24
415.096	0.24
415.553	0.24
416.01	0.24
416.467	0.24
416.925	0.24
417.382	0.24
417.839	0.24
418.296	0.24
418.753	0.24
419.21	0.24
419.667	0.24
420.124	0.24
420.581	0.24
421.038	0.23
421.495	0.23
421.952	0.23
422.409	0.23
422.866	0.23
423.322	0.23
423.779	0.23
424.236	0.23
424.693	0.23
425.149	0.23
425.606	0.23
426.063	0.23
426.519	0.23
426.976	0.23
427.433	0.23
427.889	0.23
428.346	0.23
428.802	0.23
429.258	0.23
429.715	0.23
430.171	0.23
430.628	0.23
431.084	0.23
431.54	0.23
431.997	0.23
432.453	0.23
432.909	0.23
433.365	0.23
433.821	0.23
434.277	0.23
434.734	0.23
435.19	0.23
435.646	0.23
436.102	0.23
436.558	0.23
437.014	0.23
437.47	0.23
437.925	0.23
438.381	0.23
438.837	0.23
439.293	0.23
439.749	0.23
440.205	0.23
440.66	0.23
441.116	0.23
441.572	0.23
442.027	0.23
442.483	0.23
442.939	0.23
443.394	0.23
443.85	0.23
444.305	0.23
444.761	0.23
445.216	0.23
445.672	0.23
446.127	0.23
446.582	0.23
447.038	0.23
447.493	0.23
447.948	0.23
448.403	0.23
448.859	0.23
449.314	0.23
449.769	0.23
450.224	0.23
450.679	0.23
451.134	0.23
451.589	0.23
452.044	0.23
452.499	0.23
452.954	0.23
453.409	0.23
453.864	0.23
454.319	0.23
454.774	0.23
455.229	0.23
455.684	0.23
456.138	0.23
456.593	0.23
457.048	0.23
457.503	0.23
457.957	0.23
458.412	0.23
458.866	0.23
459.321	0.23
459.776	0.23
460.23	0.23
460.685	0.23
461.139	0.23
461.593	0.23
462.048	0.23
462.502	0.23
462.957	0.23
463.411	0.23
463.865	0.23
464.319	0.23
464.774	0.23
465.228	0.23
465.682	0.23
466.136	0.23
466.59	0.23
467.044	0.23
467.499	0.23
467.953	0.23
468.407	0.23
468.861	0.23
469.315	0.23
469.768	0.24
470.222	0.24
470.676	0.24
471.13	0.24
471.584	0.24
472.038	0.24
472.491	0.24
472.945	0.24
473.399	0.24
473.852	0.24
474.306	0.24
474.76	0.24
475.213	0.24
475.667	0.24
476.12	0.24
476.574	0.24
477.027	0.24
477.481	0.24
477.934	0.24
478.388	0.24
478.841	0.25
479.294	0.25
479.748	0.25
480.201	0.25
480.654	0.25
481.107	0.25
481.561	0.25
482.014	0.25
482.467	0.25
482.92	0.25
483.373	0.25
483.826	0.25
484.279	0.26
484.732	0.26
485.185	0.26
485.638	0.26
486.091	0.26
486.544	0.26
486.997	0.26
487.449	0.26
487.902	0.26
488.355	0.27
488.808	0.27
489.26	0.27
489.713	0.27
490.166	0.27
490.618	0.27
491.071	0.27
491.523	0.28
491.976	0.28
492.429	0.28
492.881	0.28
493.333	0.28
493.786	0.28
494.238	0.29
494.691	0.29
495.143	0.29
495.595	0.29
496.048	0.29
496.5	0.3
496.952	0.3
497.404	0.3
497.856	0.3
498.309	0.3
498.761	0.31
499.213	0.31
499.665	0.31
500.117	0.31
500.569	0.31
501.021	0.32
501.473	0.32
501.925	0.32
502.377	0.32
502.828	0.33
503.28	0.33
503.732	0.33
504.184	0.33
504.636	0.33
505.087	0.34
505.539	0.34
505.991	0.34
506.442	0.34
506.894	0.34
507.345	0.35
507.797	0.35
508.249	0.35
508.7	0.35
509.151	0.35
509.603	0.36
510.054	0.36
510.506	0.36
510.957	0.36
511.408	0.36
511.86	0.36
512.311	0.37
512.762	0.37
513.213	0.37
513.665	0.37
514.116	0.37
514.567	0.37
515.018	0.38
515.469	0.38
515.92	0.38
516.371	0.38
516.822	0.38
517.273	0.38
517.724	0.38
518.175	0.39
518.626	0.39
519.076	0.39
519.527	0.39
519.978	0.39
520.429	0.39
520.88	0.39
521.33	0.39
521.781	0.39
522.232	0.39
522.682	0.39
523.133	0.4
523.583	0.4
524.034	0.4
524.484	0.4
524.935	0.4
525.385	0.4
525.836	0.4
526.286	0.4
526.736	0.4
527.187	0.4
527.637	0.4
528.087	0.4
528.538	0.4
528.988	0.4
529.438	0.4
529.888	0.4
530.338	0.4
530.788	0.4
531.238	0.39
531.688	0.39
532.139	0.39
532.589	0.39
533.038	0.39
533.488	0.39
533.938	0.39
534.388	0.39
534.838	0.39
535.288	0.39
535.738	0.39
536.187	0.38
536.637	0.38
537.087	0.38
537.537	0.38
537.986	0.38
538.436	0.38
538.885	0.38
539.335	0.37
539.785	0.37
540.234	0.37
540.684	0.37
541.133	0.37
541.582	0.37
542.032	0.37
542.481	0.36
542.931	0.36
543.38	0.36
543.829	0.36
544.278	0.36
544.728	0.36
545.177	0.35
545.626	0.35
546.075	0.35
546.524	0.35
546.973	0.35
547.422	0.34
547.871	0.34
548.32	0.34
548.769	0.34
549.218	0.33
549.667	0.33
550.116	0.33
550.565	0.33
551.014	0.33
551.463	0.32
551.911	0.32
552.36	0.32
552.809	0.32
553.258	0.31
553.706	0.31
554.155	0.31
554.603	0.31
555.052	0.3
555.501	0.3
555.949	0.3
556.398	0.3
556.846	0.3
557.294	0.29
557.743	0.29
558.191	0.29
558.64	0.29
559.088	0.28
559.536	0.28
559.985	0.28
560.433	0.28
560.881	0.28
561.329	0.27
561.777	0.27
562.225	0.27
562.674	0.27
563.122	0.27
563.57	0.26
564.018	0.26
564.466	0.26
564.914	0.26
565.362	0.25
565.809	0.25
566.257	0.25
566.705	0.25
567.153	0.25
567.601	0.24
568.048	0.24
568.496	0.24
568.944	0.24
569.392	0.23
569.839	0.23
570.287	0.23
570.734	0.23
571.182	0.23
571.63	0.22
572.077	0.22
572.525	0.22
572.972	0.22
573.419	0.22
573.867	0.21
574.314	0.21
574.761	0.21
575.209	0.21
575.656	0.21
576.103	0.2
576.551	0.2
576.998	0.2
577.445	0.2
577.892	0.2
578.339	0.2
578.786	0.2
579.233	0.19
579.68	0.19
580.127	0.19
580.574	0.19
581.021	0.19
581.468	0.19
581.915	0.18
582.362	0.18
582.809	0.18
583.255	0.18
583.702	0.18
584.149	0.18
584.596	0.18
585.042	0.17
585.489	0.17
585.936	0.17
586.382	0.17
586.829	0.17
587.275	0.17
587.722	0.17
588.168	0.16
588.615	0.16
589.061	0.16
589.508	0.16
589.954	0.16
590.4	0.16
590.847	0.16
591.293	0.16
591.739	0.15
592.185	0.15
592.632	0.15
593.078	0.15
593.524	0.15
593.97	0.15
594.416	0.15
594.862	0.15
595.308	0.15
595.754	0.15
596.2	0.15
596.646	0.14
597.092	0.14
597.538	0.14
597.984	0.14
598.43	0.14
598.876	0.14
599.321	0.14
599.767	0.14
600.213	0.14
600.659	0.14
601.104	0.14
601.55	0.14
601.995	0.14
602.441	0.13
602.887	0.13
603.332	0.13
603.778	0.13
604.223	0.13
604.668	0.13
605.114	0.13
605.559	0.13
606.005	0.13
606.45	0.13
606.895	0.13
607.341	0.13
607.786	0.13
608.231	0.13
608.676	0.13
609.121	0.13
609.566	0.13
610.012	0.13
610.457	0.13
610.902	0.13
611.347	0.13
611.792	0.13
612.237	0.13
612.682	0.13
613.127	0.13
613.571	0.13
614.016	0.13
614.461	0.13
614.906	0.13
615.351	0.13
615.795	0.13
616.24	0.13
616.685	0.13
617.129	0.13
617.574	0.13
618.019	0.13
618.463	0.13
618.908	0.13
619.352	0.13
619.797	0.13
620.241	0.13
620.686	0.13
621.13	0.13
621.574	0.13
622.019	0.13
622.463	0.13
622.907	0.13
623.352	0.13
623.796	0.13
624.24	0.13
624.684	0.13
625.128	0.13
625.572	0.14
626.016	0.14
626.461	0.14
626.905	0.14
627.349	0.14
627.793	0.14
628.236	0.14
628.68	0.14
629.124	0.14
629.568	0.14
630.012	0.14
630.456	0.14
630.9	0.14
631.343	0.14
631.787	0.14
632.231	0.15
632.674	0.15
633.118	0.15
633.562	0.15
634.005	0.15
634.449	0.15
634.892	0.15
635.336	0.16
635.779	0.16
636.223	0.16
636.666	0.16
637.109	0.16
637.553	0.16
637.996	0.17
638.439	0.17
638.883	0.17
639.326	0.17
639.769	0.17
640.212	0.17
640.655	0.17
641.099	0.18
641.542	0.18
641.985	0.18
642.428	0.18
642.871	0.18
643.314	0.19
643.757	0.19
644.2	0.19
644.643	0.19
645.085	0.2
645.528	0.2
645.971	0.2
646.414	0.2
646.857	0.21
647.299	0.21
647.742	0.21
648.185	0.21
648.627	0.21
649.07	0.22
649.513	0.22
649.955	0.22
650.398	0.22
650.84	0.23
651.283	0.23
651.725	0.23
652.168	0.24
652.61	0.24
653.052	0.24
653.495	0.24
653.937	0.19
654.379	0.15
654.821	0.15
655.264	0.16
655.706	0.16
656.148	0.16
656.59	0.16
657.032	0.16
657.474	0.16
657.916	0.16
658.358	0.16
658.8	0.21
659.242	0.28
659.684	0.28
660.126	0.29
660.568	0.29
661.01	0.29
661.452	0.3
661.894	0.3
662.335	0.3
662.777	0.3
663.219	0.31
663.661	0.31
664.102	0.31
664.544	0.31
664.985	0.32
665.427	0.32
665.869	0.32
666.31	0.32
666.752	0.33
667.193	0.33
667.634	0.33
668.076	0.33
668.517	0.34
668.959	0.34
669.4	0.34
669.841	0.34
670.282	0.35
670.724	0.35
671.165	0.35
671.606	0.35
672.047	0.35
672.488	0.36
672.929	0.36
673.37	0.36
673.811	0.36
674.252	0.36
674.693	0.36
675.134	0.37
675.575	0.37
676.016	0.37
676.457	0.37
676.898	0.37
677.339	0.37
677.78	0.38
678.22	0.38
678.661	0.38
679.102	0.38
679.542	0.38
679.983	0.38
680.424	0.38
680.864	0.38
681.305	0.39
681.745	0.39
682.186	0.39
682.626	0.39
683.067	0.39
683.507	0.39
683.948	0.39
684.388	0.39
684.828	0.39
685.269	0.39
685.709	0.39
686.149	0.39
686.589	0.39
687.029	0.39
687.47	0.39
687.91	0.39
688.35	0.39
688.79	0.39
689.23	0.39
689.67	0.39
690.11	0.38
690.55	0.38
690.99	0.38
691.43	0.38
691.87	0.38
692.31	0.38
692.749	0.38
693.189	0.38
693.629	0.38
694.069	0.38
694.508	0.37
694.948	0.37
695.388	0.37
695.827	0.37
696.267	0.37
696.706	0.37
697.146	0.37
697.586	0.36
698.025	0.36
698.464	0.36
698.904	0.36
699.343	0.36
699.783	0.36
700.222	0.36
700.661	0.35
701.101	0.35
701.54	0.35
701.979	0.35
702.418	0.35
702.857	0.35
703.297	0.35
703.736	0.34
704.175	0.34
704.614	0.34
705.053	0.34
705.492	0.34
705.931	0.33
706.37	0.33
706.809	0.33
707.248	0.33
707.687	0.33
708.125	0.32
708.564	0.32
709.003	0.32
709.442	0.32
709.88	0.32
710.319	0.31
710.758	0.31
711.196	0.31
711.635	0.31
712.074	0.3
712.512	0.3
712.951	0.3
713.389	0.3
713.828	0.3
714.266	0.3
714.705	0.29
715.143	0.29
715.581	0.29
716.02	0.29
716.458	0.29
716.896	0.28
717.334	0.28
717.773	0.28
718.211	0.28
718.649	0.27
719.087	0.27
719.525	0.27
719.963	0.27
720.401	0.26
720.839	0.26
721.277	0.26
721.715	0.26
722.153	0.25
722.591	0.25
723.029	0.25
723.467	0.25
723.905	0.25
724.342	0.24
724.78	0.24
725.218	0.24
725.656	0.24
726.093	0.24
726.531	0.24
726.969	0.23
727.406	0.23
727.844	0.23
728.281	0.23
728.719	0.23
729.156	0.22
729.594	0.22
730.031	0.22
730.469	0.22
730.906	0.22
731.343	0.21
731.781	0.21
732.218	0.21
732.655	0.21
733.092	0.21
733.53	0.2
733.967	0.2
734.404	0.2
734.841	0.2
735.278	0.19
735.715	0.19
736.152	0.19
736.589	0.19
737.026	0.19
737.463	0.19
737.9	0.18
738.337	0.18
738.774	0.18
739.211	0.18
739.647	0.18
740.084	0.18
740.521	0.18
740.958	0.18
741.394	0.17
741.831	0.17
742.268	0.17
742.704	0.17
743.141	0.17
743.577	0.17
744.014	0.17
744.45	0.16
744.887	0.16
745.323	0.16
745.76	0.16
746.196	0.16
746.632	0.15
747.069	0.15
747.505	0.15
747.941	0.15
748.378	0.15
748.814	0.15
749.25	0.15
749.686	0.15
750.122	0.14
750.558	0.14
750.994	0.14
751.43	0.14
751.866	0.14
752.302	0.14
752.738	0.14
753.174	0.14
753.61	0.13
754.046	0.13
754.482	0.13
754.918	0.13
755.354	0.13
755.789	0.13
756.225	0.13
756.661	0.13
757.096	0.13
757.532	0.13
757.968	0.12
758.403	0.12
758.839	0.12
759.274	0.12
759.71	0.12
760.145	0.12
760.581	0.12
761.016	0.12
761.452	0.12
761.887	0.12
762.322	0.12
762.758	0.12
763.193	0.11
763.628	0.11
764.063	0.11
764.499	0.11
764.934	0.11
765.369	0.11
765.804	0.11
766.239	0.11
766.674	0.11
767.109	0.11
767.544	0.11
767.979	0.11
768.414	0.11
768.849	0.1
769.284	0.1
769.719	0.1
770.154	0.1
770.588	0.1
771.023	0.1
771.458	0.1
771.893	0.1
772.327	0.1
772.762	0.09
773.197	0.09
773.631	0.09
774.066	0.09
774.5	0.09
774.935	0.09
775.369	0.09
775.804	0.09
776.238	0.09
776.673	0.09
777.107	0.09
777.541	0.09
777.976	0.09
778.41	0.09
778.844	0.09
779.279	0.09
779.713	0.09
780.147	0.09
780.581	0.08
781.015	0.08
781.449	0.08
781.883	0.08
782.317	0.08
782.751	0.08
783.185	0.08
783.619	0.08
784.053	0.08
784.487	0.08
784.921	0.08
785.355	0.08
785.789	0.08
786.223	0.08
786.656	0.08
787.09	0.07
787.524	0.07
787.957	0.07
788.391	0.07
788.825	0.07
789.258	0.07
789.692	0.07
790.125	0.07
790.559	0.07
790.992	0.07
791.426	0.07
791.859	0.07
792.293	0.07
792.726	0.07
793.159	0.07
793.593	0.07
794.026	0.07
794.459	0.07
794.892	0.07
795.326	0.07
795.759	0.07
796.192	0.07
796.625	0.07
797.058	0.07
797.491	0.07
797.924	0.07
798.357	0.07
798.79	0.07
799.223	0.06
799.656	0.06
800.089	0.06
800.522	0.06
800.955	0.06
801.387	0.06
801.82	0.06
802.253	0.06
802.686	0.06
803.118	0.06
803.551	0.06
803.984	0.06
804.416	0.05
804.849	0.05
805.281	0.05
805.714	0.05
806.146	0.05
806.579	0.05
807.011	0.05
807.444	0.05
807.876	0.05
808.308	0.05
808.741	0.05
809.173	0.05
809.605	0.05
810.037	0.05
810.47	0.05
810.902	0.05
811.334	0.05
811.766	0.05
812.198	0.05
812.63	0.04
813.062	0.04
813.494	0.04
813.926	0.04
814.358	0.04
814.79	0.04
815.222	0.04
815.654	0.04
816.086	0.04
816.518	0.04
816.949	0.04
817.381	0.04
817.813	0.04
818.245	0.04
818.676	0.04
819.108	0.04
819.54	0.04
819.971	0.04
820.403	0.04
820.834	0.04
821.266	0.04
821.697	0.04
822.129	0.04
822.56	0.05
822.991	0.05
823.423	0.05
823.854	0.05
824.286	0.05
824.717	0.05
825.148	0.05
825.579	0.05
826.01	0.05
826.442	0.05
826.873	0.05
827.304	0.05
827.735	0.05
828.166	0.05
828.597	0.05
829.028	0.05
829.459	0.04
829.89	0.04
830.321	0.04
830.752	0.04
831.183	0.04
831.613	0.04
832.044	0.04
832.475	0.04
832.906	0.04
833.336	0.04
833.767	0.04
834.198	0.04
834.628	0.04
835.059	0.04
835.49	0.04
835.92	0.04
836.351	0.04
836.781	0.04
837.212	0.04
837.642	0.04
838.072	0.04
838.503	0.04
838.933	0.04
839.364	0.04
839.794	0.04
840.224	0.04
840.654	0.03
841.085	0.03
841.515	0.03
841.945	0.03
842.375	0.03
842.805	0.03
843.235	0.03
843.665	0.03
844.095	0.03
844.525	0.03
844.955	0.03
845.385	0.03
845.815	0.03
846.245	0.03
846.675	0.03
847.105	0.03
847.534	0.03
847.964	0.03
848.394	0.03
848.824	0.03
849.253	0.03
849.683	0.03
850.112	0.03
850.542	0.03
850.972	0.03
851.401	0.03
851.831	0.03
852.26	0.03
852.69	0.03
853.119	0.03
853.548	0.03
853.978	0.03
854.407	0.03
854.836	0.03
855.266	0.03
855.695	0.03
856.124	0.03
856.553	0.03
856.983	0.03
857.412	0.03
857.841	0.03
858.27	0.03
858.699	0.03
859.128	0.03
859.557	0.03
859.986	0.03
860.415	0.03
860.844	0.03
861.273	0.03
861.702	0.03
862.13	0.03
862.559	0.03
862.988	0.03
863.417	0.03
863.845	0.03
864.274	0.03
864.703	0.03
865.131	0.03
865.56	0.03
865.989	0.03
866.417	0.03
866.846	0.03
867.274	0.03
867.703	0.03
868.131	0.03
868.559	0.03
868.988	0.03
869.416	0.03
869.844	0.03
870.273	0.03
870.701	0.03
871.129	0.03
871.557	0.03
871.986	0.03
872.414	0.03
872.842	0.03
873.27	0.03
873.698	0.03
874.126	0.03
874.554	0.03
874.982	0.02
875.41	0.02
875.838	0.02
876.266	0.02
876.694	0.02
877.122	0.02
877.549	0.02
877.977	0.02
878.405	0.02
878.833	0.02
879.26	0.02
879.688	0.02
880.116	0.02
880.543	0.02
880.971	0.02
881.399	0.02
881.826	0.02
882.254	0.02
882.681	0.02
883.109	0.02
883.536	0.02
883.963	0.02
884.391	0.02
884.818	0.02
885.245	0.02
885.673	0.02
886.1	0.02
886.527	0.02
886.954	0.02
887.381	0.02
887.809	0.02
888.236	0.02
888.663	0.02
889.09	0.02
889.517	0.02
889.944	0.02
890.371	0.03
890.798	0.03
891.225	0.03
891.652	0.03
892.078	0.03
892.505	0.03
892.932	0.03
893.359	0.03
893.786	0.02
894.212	0.02
894.639	0.02
895.066	0.02
895.492	0.02
895.919	0.02
896.346	0.02
896.772	0.02
897.199	0.02
897.625	0.02
898.052	0.02
898.478	0.02
898.904	0.01
899.331	0.01
899.757	0.01
900.183	0.01
900.61	0.01
901.036	0.01
901.462	0.01
901.888	0.01
902.315	0.01
902.741	0.01
903.167	0.01
903.593	0.01
904.019	0.01
904.445	0.01
904.871	0.01
905.297	0.01
905.723	0.02
906.149	0.02
906.575	0.02
907.001	0.02
907.427	0.02
907.852	0.02
908.278	0.02
908.704	0.02
909.13	0.02
909.555	0.02
909.981	0.02
910.407	0.02
910.832	0.02
911.258	0.02
911.684	0.02
912.109	0.02
912.535	0.02
912.96	0.02
913.386	0.02
913.811	0.02
914.236	0.02
914.662	0.02
915.087	0.02
915.512	0.02
915.938	0.02
916.363	0.02
916.788	0.02
917.213	0.02
917.639	0.02
918.064	0.02
918.489	0.01
918.914	0.01
919.339	0.01
919.764	0.02
920.189	0.02
920.614	0.02
921.039	0.02
921.464	0.02
921.889	0.02
922.314	0.02
922.738	0.02
923.163	0.02
923.588	0.02
924.013	0.02
924.437	0.02
924.862	0.02
925.287	0.02
925.711	0.02
926.136	0.02
926.561	0.02
926.985	0.02
927.41	0.02
927.834	0.02
928.259	0.02
928.683	0.02
929.108	0.02
929.532	0.02
929.956	0.02
930.381	0.02
930.805	0.02
931.229	0.02
931.653	0.02
932.078	0.02
932.502	0.01
932.926	0.01
933.35	0.01
933.774	0.01
934.198	0.01
934.622	0.01
935.046	0.01
935.47	0.01
935.894	0.01
936.318	0.01
936.742	0.01
937.166	0.01
937.59	0.01
938.014	0.01
938.437	0.01
938.861	0.01
939.285	0.01
939.709	0.01
940.132	0.01
940.556	0.01
940.98	0.01
941.403	0.01
941.827	0.01
942.25	0.01
942.674	0.01
943.097	0.01
943.521	0.01
943.944	0.01
944.368	0.01
944.791	0.01
945.214	0.01
945.638	0.01
946.061	0.01
946.484	0.01
946.907	0.01
947.331	0.01
947.754	0.01
948.177	0.01
948.6	0.01
949.023	0.01
949.446	0.01
949.869	0.01
950.292	0.01
950.715	0.01
951.138	0.01
951.561	0
951.984	0
952.407	0
952.83	0
953.252	0
953.675	0
954.098	0
954.521	0
954.943	0
955.366	0
955.789	0
956.211	0.01
956.634	0.01
957.056	0.01
957.479	0.01
957.902	0.01
958.324	0.01
958.746	0.01
959.169	0.01
959.591	0.01
960.014	0.01
960.436	0.01
960.858	0.01
961.281	0.01
961.703	0.01
962.125	0.01
962.547	0.01
962.969	0.01
963.391	0.01
963.814	0.01
964.236	0.01
964.658	0.01
965.08	0.01
965.502	0.01
965.924	0.01
966.346	0.01
966.768	0.01
967.189	0.01
967.611	0.01
968.033	0.01
968.455	0.01
968.877	0.01
969.298	0.01
969.72	0.01
970.142	0.01
970.563	0.01
970.985	0.01
971.407	0.01
971.828	0.01
972.25	0.01
972.671	0.01
973.093	0.01
973.514	0.01
973.936	0.01
974.357	0.01
974.778	0.01
975.2	0.01
975.621	0.01
976.042	0.01
976.464	0.01
976.885	0.01
977.306	0.01
977.727	0.01
978.148	0.01
978.57	0.01
978.991	0.01
979.412	0.01
979.833	0.01
980.254	0.01
980.675	0.01
981.096	0.01
981.517	0.01
981.937	0.01
982.358	0.01
982.779	0.01
983.2	0.01
983.621	0.01
984.042	0.01
984.462	0.01
984.883	0.01
985.304	0.01
985.724	0.01
986.145	0.01
986.565	0.01
986.986	0.01
987.407	0.01
987.827	0.01
988.248	0.01
988.668	0.01
989.088	0.01
989.509	0.01
989.929	0.01
990.35	0.01
990.77	0.01
991.19	0.01
991.61	0.01
992.031	0.01
992.451	0.01
992.871	0.01
993.291	0.01
993.711	0.01
994.131	0.01
994.551	0.01
994.971	0.01
995.391	0.01
995.811	0.01
996.231	0.01
996.651	0.01
997.071	0.01
997.491	0.01
997.911	0.01
998.331	0.01
998.75	0.01
999.17	0.01
999.59	0.01
1000.009	0.01
1000.429	0.01
1000.849	0.01
1001.268	0.01
1001.688	0.01
1002.107	0.01
1002.527	0.01
1002.946	0.01
1003.366	0.01
1003.785	0.01
1004.205	0.01
1004.624	0.01
1005.044	0.01
1005.463	0.01
1005.882	0.01
1006.301	0.01
1006.721	0.01
1007.14	0.01
1007.559	0.01
1007.978	0
1008.397	0
1008.816	0
1009.235	0
1009.655	0
1010.074	0
1010.492	0
1010.911	0
1011.33	0
1011.749	0
1012.168	-0
1012.587	-0
1013.006	-0
1013.425	-0
1013.843	-0
1014.262	-0
1014.681	-0
1015.099	-0
1015.518	-0
1015.937	-0
1016.355	-0
1016.774	-0
1017.192	-0
1017.611	-0
1018.029	-0
1018.448	-0
1018.866	-0
1019.285	-0
1019.703	-0
1020.121	-0
1020.54	-0
1020.958	-0
1021.376	-0
1021.794	-0
1022.213	-0
1022.631	-0
1023.049	0
1023.467	0
1023.885	0
1024.303	0
1024.721	0
1025.139	0
1025.557	0
1025.975	0
1026.393	0
1026.811	0
1027.229	0
1027.647	0
1028.065	0.01
1028.482	0.01
1028.9	0.01
1029.318	0.01
1029.735	0.01
1030.153	0.01
1030.571	0.01
1030.988	0.01
1031.406	0.01
1031.823	0.01
1032.241	0.01
1032.659	0.01
1033.076	0.01
1033.493	0.01
1033.911	0.01
1034.328	0.01
1034.746	0.01
1035.163	0.01
1035.58	0.01
1035.997	0.01
1036.415	0.01
1036.832	0.01
1037.249	0.01
1037.666	0.01
1038.083	0.01
1038.501	0.01
1038.918	0.01
1039.335	0.01
1039.752	0.01
1040.169	0.01
1040.586	0.01
1041.003	0.01
1041.419	0.01
1041.836	0.01
1042.253	0.01
1042.67	0
1043.087	0
1043.504	0
1043.92	0
1044.337	0
1044.754	0
1045.17	0
1045.587	0
1046.004	0
1046.42	0
1046.837	0
1047.253	0
1047.67	0
1048.086	0
1048.503	0
1048.919	0
1049.335	0
1049.752	0
1050.168	0
1050.584	0
1051.001	0
1051.417	0
1051.833	0
1052.249	0
1052.665	0
1053.081	0
1053.497	0
1053.914	0
1054.33	0
1054.746	0
1055.162	0
1055.578	0
1055.993	0
1056.409	-0
1056.825	-0
1057.241	-0
1057.657	-0
1058.073	-0
1058.488	-0
1058.904	-0
1059.32	-0
1059.736	-0
1060.151	-0
1060.567	-0
1060.982	-0
1061.398	-0
1061.813	-0
1062.229	-0
1062.644	-0
1063.06	-0
1063.475	-0
1063.891	-0
1064.306	-0
1064.721	-0
1065.137	-0
1065.552	-0
1065.967	-0
1066.382	-0
1066.798	-0
1067.213	-0
1067.628	-0
1068.043	-0
1068.458	-0
1068.873	-0
1069.288	-0
1069.703	-0
1070.118	-0
1070.533	-0
1070.948	-0
1071.363	-0
1071.778	-0
1072.193	-0
1072.607	-0
1073.022	-0
1073.437	-0
1073.852	-0
1074.266	-0
1074.681	-0
1075.096	-0
1075.51	-0
1075.925	-0
1076.339	-0
1076.754	-0
1077.168	-0
1077.583	-0.01
1077.997	-0.01
1078.412	-0.01
1078.826	-0.01
1079.24	-0.01
1079.655	-0.01
1080.069	-0.01
1080.483	-0.01
1080.897	-0.01
1081.312	-0
1081.726	-0
1082.14	-0
1082.554	-0
1082.968	-0.01
1083.382	-0.01
1083.796	-0.01
1084.21	-0.01
1084.624	-0.01
1085.038	-0.01
1085.452	-0.01
1085.866	-0.01
1086.28	-0.01
1086.694	-0.01
1087.108	-0.01
1087.521	-0.01
1087.935	-0.01
1088.349	-0.01
1088.763	-0.01
1089.176	-0.01
1089.59	-0.01
1090.004	-0.01
1090.417	-0.01
1090.831	-0.01
1091.244	-0.02
1091.658	-0.02
1092.071	-0.02
1092.485	-0.02
1092.898	-0.02
1093.312	-0.02
1093.725	-0.02
1094.138	-0.02
1094.552	-0.02
1094.965	-0.02
1095.378	-0.02
1095.791	-0.02
1096.205	-0.02
1096.618	-0.02
1097.031	-0.02
1097.444	-0.02
1097.857	-0.03
1098.27	-0.03
1098.683	-0.03
1099.096	-0.03
1099.509	-0.03
1099.922	-0.03
1100.335	-0.03
1100.748	-0.03
1101.161	-0.03
1101.574	-0.03
1101.986	-0.03
1102.399	-0.03
1102.812	-0.03
1103.225	-0.03
1103.637	-0.04
1104.05	-0.03
1104.463	-0.04
1104.875	-0.04
1105.288	-0.04
1105.7	-0.04
1106.113	-0.04
1106.525	-0.04
1106.938	-0.04
1107.35	-0.04
1107.763	-0.05
1108.175	-0.05
1108.588	-0.05
1109	-0.05
1109.412	-0.05
1109.824	-0.05
1110.237	-0.05
1110.649	-0.05
1111.061	-0.05
