Data from 2024-02-06-100ns-20nr-25nacl-100h2o-7bp2-40to10hyt-dark-0_5cpm_Absorbance__89__00089.txt Node

Date: Tue Feb 06 10:56:29 CET 2024
User: Laser008
Spectrometer: MAYP115816
Trigger mode: 0
Integration Time (sec): 2.000000E-1
Scans to average: 10
Electric dark correction enabled: true
Nonlinearity correction enabled: true
Boxcar width: 5
XAxis mode: Wavelengths
Number of Pixels in Spectrum: 2068
>>>>>Begin Spectral Data<<<<<
198.914	-0.29
199.384	-0.26
199.855	-0.2
200.325	-0.16
200.796	-0.13
201.266	-0.12
201.737	-0.1
202.207	-0.1
202.677	-0.09
203.147	-0.09
203.618	-0.08
204.088	-0.07
204.558	-0.06
205.028	-0.05
205.498	-0.05
205.968	-0.05
206.439	-0.06
206.909	-0.05
207.379	-0.05
207.849	-0.05
208.319	-0.05
208.789	-0.05
209.258	-0.05
209.728	-0.05
210.198	-0.05
210.668	-0.05
211.138	-0.05
211.608	-0.05
212.077	-0.05
212.547	-0.05
213.017	-0.05
213.486	-0.05
213.956	-0.05
214.426	-0.05
214.895	-0.05
215.365	-0.05
215.834	-0.05
216.304	-0.05
216.773	-0.04
217.243	-0.04
217.712	-0.04
218.181	-0.04
218.651	-0.04
219.12	-0.04
219.589	-0.03
220.058	-0.03
220.528	-0.03
220.997	-0.03
221.466	-0.03
221.935	-0.03
222.404	-0.02
222.873	-0.02
223.342	-0.02
223.812	-0.02
224.281	-0.01
224.749	-0.01
225.218	-0
225.687	0.01
226.156	0.01
226.625	0.02
227.094	0.03
227.563	0.04
228.031	0.05
228.5	0.07
228.969	0.08
229.438	0.1
229.906	0.12
230.375	0.14
230.844	0.16
231.312	0.18
231.781	0.2
232.249	0.22
232.718	0.24
233.186	0.26
233.655	0.28
234.123	0.3
234.591	0.32
235.06	0.33
235.528	0.35
235.996	0.36
236.465	0.37
236.933	0.39
237.401	0.4
237.869	0.41
238.337	0.42
238.805	0.42
239.274	0.43
239.742	0.44
240.21	0.44
240.678	0.45
241.146	0.45
241.614	0.46
242.081	0.46
242.549	0.47
243.017	0.47
243.485	0.47
243.953	0.48
244.421	0.48
244.888	0.48
245.356	0.48
245.824	0.49
246.291	0.49
246.759	0.49
247.227	0.49
247.694	0.5
248.162	0.5
248.629	0.5
249.097	0.5
249.564	0.51
250.032	0.51
250.499	0.51
250.967	0.51
251.434	0.52
251.901	0.52
252.369	0.52
252.836	0.52
253.303	0.52
253.77	0.52
254.237	0.52
254.705	0.53
255.172	0.53
255.639	0.53
256.106	0.53
256.573	0.53
257.04	0.53
257.507	0.53
257.974	0.53
258.441	0.53
258.908	0.53
259.375	0.53
259.841	0.53
260.308	0.53
260.775	0.53
261.242	0.53
261.709	0.53
262.175	0.53
262.642	0.53
263.109	0.53
263.575	0.53
264.042	0.53
264.508	0.52
264.975	0.52
265.441	0.52
265.908	0.52
266.374	0.52
266.841	0.52
267.307	0.51
267.773	0.51
268.24	0.51
268.706	0.51
269.172	0.51
269.639	0.5
270.105	0.5
270.571	0.5
271.037	0.5
271.503	0.49
271.969	0.49
272.435	0.49
272.902	0.48
273.368	0.48
273.834	0.48
274.3	0.48
274.765	0.47
275.231	0.47
275.697	0.47
276.163	0.47
276.629	0.46
277.095	0.46
277.56	0.46
278.026	0.45
278.492	0.45
278.958	0.45
279.423	0.44
279.889	0.44
280.354	0.44
280.82	0.43
281.286	0.43
281.751	0.43
282.217	0.42
282.682	0.42
283.147	0.42
283.613	0.42
284.078	0.41
284.544	0.41
285.009	0.41
285.474	0.4
285.939	0.4
286.405	0.4
286.87	0.4
287.335	0.39
287.8	0.39
288.265	0.39
288.73	0.39
289.195	0.38
289.66	0.38
290.125	0.38
290.59	0.38
291.055	0.38
291.52	0.37
291.985	0.37
292.45	0.37
292.915	0.37
293.38	0.37
293.844	0.37
294.309	0.36
294.774	0.36
295.239	0.36
295.703	0.36
296.168	0.36
296.632	0.36
297.097	0.35
297.562	0.35
298.026	0.35
298.491	0.35
298.955	0.35
299.419	0.35
299.884	0.35
300.348	0.35
300.813	0.34
301.277	0.34
301.741	0.34
302.205	0.34
302.67	0.34
303.134	0.34
303.598	0.34
304.062	0.34
304.526	0.34
304.99	0.34
305.454	0.33
305.919	0.33
306.383	0.33
306.847	0.33
307.31	0.33
307.774	0.33
308.238	0.33
308.702	0.33
309.166	0.33
309.63	0.33
310.094	0.33
310.557	0.32
311.021	0.32
311.485	0.32
311.948	0.32
312.412	0.32
312.876	0.32
313.339	0.32
313.803	0.32
314.266	0.32
314.73	0.32
315.193	0.32
315.657	0.31
316.12	0.31
316.584	0.31
317.047	0.31
317.51	0.31
317.973	0.31
318.437	0.31
318.9	0.31
319.363	0.31
319.826	0.31
320.29	0.31
320.753	0.31
321.216	0.31
321.679	0.31
322.142	0.3
322.605	0.3
323.068	0.3
323.531	0.3
323.994	0.3
324.457	0.3
324.92	0.3
325.382	0.3
325.845	0.3
326.308	0.3
326.771	0.3
327.233	0.3
327.696	0.3
328.159	0.29
328.622	0.29
329.084	0.29
329.547	0.29
330.009	0.29
330.472	0.29
330.934	0.29
331.397	0.29
331.859	0.29
332.322	0.29
332.784	0.29
333.246	0.29
333.709	0.29
334.171	0.29
334.633	0.29
335.096	0.29
335.558	0.28
336.02	0.28
336.482	0.28
336.944	0.28
337.406	0.28
337.868	0.28
338.331	0.28
338.793	0.28
339.255	0.28
339.717	0.28
340.178	0.28
340.64	0.28
341.102	0.28
341.564	0.28
342.026	0.28
342.488	0.28
342.949	0.28
343.411	0.28
343.873	0.28
344.335	0.28
344.796	0.28
345.258	0.28
345.719	0.28
346.181	0.27
346.643	0.27
347.104	0.27
347.566	0.27
348.027	0.27
348.488	0.27
348.95	0.27
349.411	0.27
349.873	0.27
350.334	0.27
350.795	0.27
351.256	0.27
351.718	0.27
352.179	0.27
352.64	0.27
353.101	0.27
353.562	0.27
354.023	0.27
354.484	0.27
354.945	0.27
355.406	0.27
355.867	0.27
356.328	0.27
356.789	0.27
357.25	0.27
357.711	0.27
358.172	0.27
358.633	0.27
359.093	0.27
359.554	0.27
360.015	0.27
360.476	0.27
360.936	0.27
361.397	0.27
361.858	0.27
362.318	0.27
362.779	0.27
363.239	0.27
363.7	0.27
364.16	0.27
364.621	0.27
365.081	0.27
365.541	0.27
366.002	0.27
366.462	0.27
366.922	0.27
367.383	0.27
367.843	0.27
368.303	0.27
368.763	0.26
369.223	0.26
369.684	0.26
370.144	0.26
370.604	0.26
371.064	0.26
371.524	0.26
371.984	0.26
372.444	0.26
372.904	0.26
373.363	0.26
373.823	0.26
374.283	0.26
374.743	0.26
375.203	0.26
375.663	0.26
376.122	0.26
376.582	0.26
377.042	0.26
377.501	0.26
377.961	0.26
378.42	0.26
378.88	0.26
379.34	0.26
379.799	0.26
380.259	0.26
380.718	0.26
381.177	0.26
381.637	0.26
382.096	0.26
382.555	0.26
383.015	0.26
383.474	0.26
383.933	0.26
384.393	0.26
384.852	0.26
385.311	0.25
385.77	0.25
386.229	0.25
386.688	0.25
387.147	0.25
387.606	0.25
388.065	0.25
388.524	0.25
388.983	0.25
389.442	0.25
389.901	0.25
390.36	0.25
390.819	0.25
391.277	0.25
391.736	0.25
392.195	0.25
392.654	0.25
393.112	0.25
393.571	0.25
394.03	0.25
394.488	0.25
394.947	0.25
395.405	0.25
395.864	0.25
396.322	0.25
396.781	0.25
397.239	0.25
397.698	0.25
398.156	0.25
398.614	0.25
399.073	0.25
399.531	0.25
399.989	0.25
400.447	0.25
400.905	0.25
401.364	0.25
401.822	0.25
402.28	0.24
402.738	0.24
403.196	0.24
403.654	0.24
404.112	0.24
404.57	0.24
405.028	0.24
405.486	0.24
405.944	0.24
406.402	0.24
406.859	0.24
407.317	0.24
407.775	0.24
408.233	0.24
408.691	0.24
409.148	0.24
409.606	0.24
410.064	0.24
410.521	0.24
410.979	0.24
411.436	0.24
411.894	0.24
412.351	0.24
412.809	0.24
413.266	0.24
413.724	0.24
414.181	0.24
414.638	0.24
415.096	0.24
415.553	0.24
416.01	0.24
416.467	0.24
416.925	0.24
417.382	0.24
417.839	0.24
418.296	0.24
418.753	0.24
419.21	0.24
419.667	0.24
420.124	0.24
420.581	0.24
421.038	0.24
421.495	0.24
421.952	0.24
422.409	0.24
422.866	0.24
423.322	0.24
423.779	0.24
424.236	0.23
424.693	0.23
425.149	0.23
425.606	0.23
426.063	0.23
426.519	0.23
426.976	0.23
427.433	0.23
427.889	0.23
428.346	0.23
428.802	0.23
429.258	0.23
429.715	0.23
430.171	0.23
430.628	0.23
431.084	0.23
431.54	0.23
431.997	0.23
432.453	0.23
432.909	0.23
433.365	0.23
433.821	0.23
434.277	0.23
434.734	0.23
435.19	0.23
435.646	0.23
436.102	0.23
436.558	0.23
437.014	0.23
437.47	0.23
437.925	0.23
438.381	0.23
438.837	0.23
439.293	0.23
439.749	0.23
440.205	0.23
440.66	0.23
441.116	0.23
441.572	0.23
442.027	0.23
442.483	0.23
442.939	0.23
443.394	0.23
443.85	0.23
444.305	0.23
444.761	0.23
445.216	0.23
445.672	0.23
446.127	0.23
446.582	0.23
447.038	0.23
447.493	0.23
447.948	0.23
448.403	0.23
448.859	0.23
449.314	0.23
449.769	0.23
450.224	0.23
450.679	0.23
451.134	0.23
451.589	0.23
452.044	0.23
452.499	0.23
452.954	0.23
453.409	0.23
453.864	0.23
454.319	0.23
454.774	0.23
455.229	0.23
455.684	0.23
456.138	0.23
456.593	0.23
457.048	0.23
457.503	0.23
457.957	0.23
458.412	0.23
458.866	0.23
459.321	0.23
459.776	0.23
460.23	0.23
460.685	0.23
461.139	0.23
461.593	0.23
462.048	0.23
462.502	0.23
462.957	0.23
463.411	0.23
463.865	0.23
464.319	0.23
464.774	0.23
465.228	0.23
465.682	0.23
466.136	0.24
466.59	0.24
467.044	0.24
467.499	0.24
467.953	0.24
468.407	0.24
468.861	0.24
469.315	0.24
469.768	0.24
470.222	0.24
470.676	0.24
471.13	0.24
471.584	0.24
472.038	0.24
472.491	0.24
472.945	0.24
473.399	0.24
473.852	0.24
474.306	0.24
474.76	0.24
475.213	0.24
475.667	0.24
476.12	0.25
476.574	0.25
477.027	0.25
477.481	0.25
477.934	0.25
478.388	0.25
478.841	0.25
479.294	0.25
479.748	0.25
480.201	0.25
480.654	0.25
481.107	0.25
481.561	0.26
482.014	0.26
482.467	0.26
482.92	0.26
483.373	0.26
483.826	0.26
484.279	0.26
484.732	0.26
485.185	0.26
485.638	0.27
486.091	0.27
486.544	0.27
486.997	0.27
487.449	0.27
487.902	0.27
488.355	0.27
488.808	0.28
489.26	0.28
489.713	0.28
490.166	0.28
490.618	0.28
491.071	0.28
491.523	0.28
491.976	0.29
492.429	0.29
492.881	0.29
493.333	0.29
493.786	0.29
494.238	0.29
494.691	0.3
495.143	0.3
495.595	0.3
496.048	0.3
496.5	0.3
496.952	0.31
497.404	0.31
497.856	0.31
498.309	0.31
498.761	0.31
499.213	0.32
499.665	0.32
500.117	0.32
500.569	0.32
501.021	0.33
501.473	0.33
501.925	0.33
502.377	0.33
502.828	0.33
503.28	0.34
503.732	0.34
504.184	0.34
504.636	0.34
505.087	0.34
505.539	0.35
505.991	0.35
506.442	0.35
506.894	0.35
507.345	0.36
507.797	0.36
508.249	0.36
508.7	0.36
509.151	0.36
509.603	0.37
510.054	0.37
510.506	0.37
510.957	0.37
511.408	0.37
511.86	0.37
512.311	0.38
512.762	0.38
513.213	0.38
513.665	0.38
514.116	0.38
514.567	0.38
515.018	0.38
515.469	0.38
515.92	0.39
516.371	0.39
516.822	0.39
517.273	0.39
517.724	0.39
518.175	0.39
518.626	0.39
519.076	0.39
519.527	0.39
519.978	0.4
520.429	0.4
520.88	0.4
521.33	0.4
521.781	0.4
522.232	0.4
522.682	0.4
523.133	0.4
523.583	0.4
524.034	0.4
524.484	0.4
524.935	0.4
525.385	0.4
525.836	0.4
526.286	0.4
526.736	0.4
527.187	0.4
527.637	0.4
528.087	0.4
528.538	0.4
528.988	0.39
529.438	0.39
529.888	0.39
530.338	0.39
530.788	0.39
531.238	0.39
531.688	0.39
532.139	0.39
532.589	0.38
533.038	0.38
533.488	0.38
533.938	0.38
534.388	0.38
534.838	0.38
535.288	0.37
535.738	0.37
536.187	0.37
536.637	0.37
537.087	0.37
537.537	0.36
537.986	0.36
538.436	0.36
538.885	0.36
539.335	0.36
539.785	0.35
540.234	0.35
540.684	0.35
541.133	0.35
541.582	0.34
542.032	0.34
542.481	0.34
542.931	0.34
543.38	0.33
543.829	0.33
544.278	0.33
544.728	0.33
545.177	0.32
545.626	0.32
546.075	0.32
546.524	0.31
546.973	0.31
547.422	0.31
547.871	0.31
548.32	0.3
548.769	0.3
549.218	0.3
549.667	0.3
550.116	0.29
550.565	0.29
551.014	0.29
551.463	0.28
551.911	0.28
552.36	0.28
552.809	0.28
553.258	0.27
553.706	0.27
554.155	0.27
554.603	0.27
555.052	0.26
555.501	0.26
555.949	0.26
556.398	0.25
556.846	0.25
557.294	0.25
557.743	0.25
558.191	0.24
558.64	0.24
559.088	0.24
559.536	0.24
559.985	0.23
560.433	0.23
560.881	0.23
561.329	0.23
561.777	0.22
562.225	0.22
562.674	0.22
563.122	0.22
563.57	0.21
564.018	0.21
564.466	0.21
564.914	0.21
565.362	0.2
565.809	0.2
566.257	0.2
566.705	0.2
567.153	0.2
567.601	0.19
568.048	0.19
568.496	0.19
568.944	0.19
569.392	0.18
569.839	0.18
570.287	0.18
570.734	0.18
571.182	0.18
571.63	0.18
572.077	0.17
572.525	0.17
572.972	0.17
573.419	0.17
573.867	0.17
574.314	0.17
574.761	0.16
575.209	0.16
575.656	0.16
576.103	0.16
576.551	0.16
576.998	0.16
577.445	0.15
577.892	0.15
578.339	0.15
578.786	0.15
579.233	0.15
579.68	0.15
580.127	0.15
580.574	0.15
581.021	0.15
581.468	0.14
581.915	0.14
582.362	0.14
582.809	0.14
583.255	0.14
583.702	0.14
584.149	0.14
584.596	0.13
585.042	0.13
585.489	0.13
585.936	0.13
586.382	0.13
586.829	0.13
587.275	0.13
587.722	0.13
588.168	0.13
588.615	0.13
589.061	0.12
589.508	0.12
589.954	0.12
590.4	0.12
590.847	0.12
591.293	0.12
591.739	0.12
592.185	0.12
592.632	0.12
593.078	0.12
593.524	0.12
593.97	0.12
594.416	0.12
594.862	0.12
595.308	0.12
595.754	0.11
596.2	0.11
596.646	0.11
597.092	0.11
597.538	0.11
597.984	0.11
598.43	0.11
598.876	0.11
599.321	0.11
599.767	0.11
600.213	0.11
600.659	0.11
601.104	0.11
601.55	0.11
601.995	0.11
602.441	0.11
602.887	0.11
603.332	0.11
603.778	0.11
604.223	0.11
604.668	0.11
605.114	0.11
605.559	0.11
606.005	0.11
606.45	0.11
606.895	0.11
607.341	0.11
607.786	0.11
608.231	0.11
608.676	0.1
609.121	0.1
609.566	0.1
610.012	0.1
610.457	0.11
610.902	0.11
611.347	0.11
611.792	0.11
612.237	0.11
612.682	0.11
613.127	0.11
613.571	0.11
614.016	0.11
614.461	0.11
614.906	0.11
615.351	0.11
615.795	0.11
616.24	0.11
616.685	0.11
617.129	0.11
617.574	0.11
618.019	0.11
618.463	0.11
618.908	0.11
619.352	0.11
619.797	0.11
620.241	0.11
620.686	0.11
621.13	0.11
621.574	0.11
622.019	0.11
622.463	0.11
622.907	0.11
623.352	0.12
623.796	0.12
624.24	0.12
624.684	0.12
625.128	0.12
625.572	0.12
626.016	0.12
626.461	0.12
626.905	0.12
627.349	0.12
627.793	0.12
628.236	0.12
628.68	0.12
629.124	0.13
629.568	0.13
630.012	0.13
630.456	0.13
630.9	0.13
631.343	0.13
631.787	0.13
632.231	0.13
632.674	0.13
633.118	0.14
633.562	0.14
634.005	0.14
634.449	0.14
634.892	0.14
635.336	0.14
635.779	0.15
636.223	0.15
636.666	0.15
637.109	0.15
637.553	0.15
637.996	0.15
638.439	0.16
638.883	0.16
639.326	0.16
639.769	0.16
640.212	0.16
640.655	0.16
641.099	0.17
641.542	0.17
641.985	0.17
642.428	0.17
642.871	0.18
643.314	0.18
643.757	0.18
644.2	0.18
644.643	0.18
645.085	0.19
645.528	0.19
645.971	0.19
646.414	0.19
646.857	0.19
647.299	0.2
647.742	0.2
648.185	0.2
648.627	0.21
649.07	0.21
649.513	0.21
649.955	0.21
650.398	0.22
650.84	0.22
651.283	0.22
651.725	0.23
652.168	0.23
652.61	0.23
653.052	0.24
653.495	0.24
653.937	0.18
654.379	0.15
654.821	0.15
655.264	0.16
655.706	0.16
656.148	0.16
656.59	0.16
657.032	0.16
657.474	0.16
657.916	0.16
658.358	0.16
658.8	0.21
659.242	0.28
659.684	0.28
660.126	0.28
660.568	0.29
661.01	0.29
661.452	0.29
661.894	0.3
662.335	0.3
662.777	0.3
663.219	0.31
663.661	0.31
664.102	0.31
664.544	0.31
664.985	0.32
665.427	0.32
665.869	0.32
666.31	0.33
666.752	0.33
667.193	0.33
667.634	0.33
668.076	0.34
668.517	0.34
668.959	0.34
669.4	0.34
669.841	0.35
670.282	0.35
670.724	0.35
671.165	0.36
671.606	0.36
672.047	0.36
672.488	0.36
672.929	0.36
673.37	0.37
673.811	0.37
674.252	0.37
674.693	0.37
675.134	0.37
675.575	0.37
676.016	0.38
676.457	0.38
676.898	0.38
677.339	0.38
677.78	0.38
678.22	0.38
678.661	0.38
679.102	0.38
679.542	0.39
679.983	0.39
680.424	0.39
680.864	0.39
681.305	0.39
681.745	0.39
682.186	0.39
682.626	0.39
683.067	0.39
683.507	0.39
683.948	0.39
684.388	0.4
684.828	0.4
685.269	0.4
685.709	0.4
686.149	0.4
686.589	0.4
687.029	0.4
687.47	0.4
687.91	0.4
688.35	0.4
688.79	0.39
689.23	0.39
689.67	0.39
690.11	0.39
690.55	0.39
690.99	0.39
691.43	0.39
691.87	0.39
692.31	0.39
692.749	0.39
693.189	0.38
693.629	0.38
694.069	0.38
694.508	0.38
694.948	0.38
695.388	0.38
695.827	0.37
696.267	0.37
696.706	0.37
697.146	0.37
697.586	0.37
698.025	0.37
698.464	0.36
698.904	0.36
699.343	0.36
699.783	0.36
700.222	0.36
700.661	0.35
701.101	0.35
701.54	0.35
701.979	0.35
702.418	0.35
702.857	0.34
703.297	0.34
703.736	0.34
704.175	0.34
704.614	0.33
705.053	0.33
705.492	0.33
705.931	0.33
706.37	0.32
706.809	0.32
707.248	0.32
707.687	0.32
708.125	0.31
708.564	0.31
709.003	0.31
709.442	0.31
709.88	0.3
710.319	0.3
710.758	0.3
711.196	0.3
711.635	0.29
712.074	0.29
712.512	0.29
712.951	0.29
713.389	0.28
713.828	0.28
714.266	0.28
714.705	0.28
715.143	0.27
715.581	0.27
716.02	0.27
716.458	0.27
716.896	0.27
717.334	0.26
717.773	0.26
718.211	0.26
718.649	0.26
719.087	0.25
719.525	0.25
719.963	0.25
720.401	0.25
720.839	0.24
721.277	0.24
721.715	0.24
722.153	0.24
722.591	0.23
723.029	0.23
723.467	0.23
723.905	0.23
724.342	0.23
724.78	0.22
725.218	0.22
725.656	0.22
726.093	0.22
726.531	0.22
726.969	0.21
727.406	0.21
727.844	0.21
728.281	0.21
728.719	0.21
729.156	0.2
729.594	0.2
730.031	0.2
730.469	0.2
730.906	0.2
731.343	0.19
731.781	0.19
732.218	0.19
732.655	0.19
733.092	0.18
733.53	0.18
733.967	0.18
734.404	0.18
734.841	0.18
735.278	0.17
735.715	0.17
736.152	0.17
736.589	0.17
737.026	0.17
737.463	0.17
737.9	0.16
738.337	0.16
738.774	0.16
739.211	0.16
739.647	0.16
740.084	0.16
740.521	0.16
740.958	0.16
741.394	0.15
741.831	0.15
742.268	0.15
742.704	0.15
743.141	0.15
743.577	0.14
744.014	0.14
744.45	0.14
744.887	0.14
745.323	0.13
745.76	0.13
746.196	0.13
746.632	0.13
747.069	0.13
747.505	0.13
747.941	0.12
748.378	0.12
748.814	0.12
749.25	0.12
749.686	0.12
750.122	0.12
750.558	0.12
750.994	0.12
751.43	0.12
751.866	0.12
752.302	0.12
752.738	0.11
753.174	0.11
753.61	0.11
754.046	0.11
754.482	0.11
754.918	0.11
755.354	0.11
755.789	0.11
756.225	0.1
756.661	0.1
757.096	0.1
757.532	0.1
757.968	0.1
758.403	0.1
758.839	0.1
759.274	0.1
759.71	0.1
760.145	0.1
760.581	0.1
761.016	0.1
761.452	0.1
761.887	0.09
762.322	0.09
762.758	0.09
763.193	0.09
763.628	0.09
764.063	0.09
764.499	0.09
764.934	0.09
765.369	0.09
765.804	0.09
766.239	0.09
766.674	0.09
767.109	0.09
767.544	0.09
767.979	0.09
768.414	0.09
768.849	0.08
769.284	0.08
769.719	0.08
770.154	0.08
770.588	0.08
771.023	0.08
771.458	0.08
771.893	0.08
772.327	0.08
772.762	0.07
773.197	0.07
773.631	0.07
774.066	0.07
774.5	0.07
774.935	0.07
775.369	0.06
775.804	0.06
776.238	0.06
776.673	0.06
777.107	0.06
777.541	0.06
777.976	0.06
778.41	0.06
778.844	0.06
779.279	0.06
779.713	0.06
780.147	0.06
780.581	0.06
781.015	0.05
781.449	0.05
781.883	0.05
782.317	0.05
782.751	0.05
783.185	0.05
783.619	0.05
784.053	0.05
784.487	0.05
784.921	0.05
785.355	0.05
785.789	0.05
786.223	0.05
786.656	0.05
787.09	0.05
787.524	0.05
787.957	0.05
788.391	0.05
788.825	0.05
789.258	0.05
789.692	0.05
790.125	0.05
790.559	0.05
790.992	0.05
791.426	0.05
791.859	0.05
792.293	0.05
792.726	0.05
793.159	0.05
793.593	0.05
794.026	0.05
794.459	0.05
794.892	0.05
795.326	0.05
795.759	0.05
796.192	0.05
796.625	0.04
797.058	0.04
797.491	0.04
797.924	0.04
798.357	0.04
798.79	0.04
799.223	0.04
799.656	0.04
800.089	0.04
800.522	0.04
800.955	0.04
801.387	0.04
801.82	0.04
802.253	0.04
802.686	0.04
803.118	0.04
803.551	0.04
803.984	0.04
804.416	0.04
804.849	0.03
805.281	0.03
805.714	0.03
806.146	0.03
806.579	0.03
807.011	0.03
807.444	0.03
807.876	0.03
808.308	0.03
808.741	0.03
809.173	0.03
809.605	0.03
810.037	0.03
810.47	0.03
810.902	0.03
811.334	0.03
811.766	0.03
812.198	0.03
812.63	0.03
813.062	0.03
813.494	0.03
813.926	0.03
814.358	0.03
814.79	0.03
815.222	0.03
815.654	0.03
816.086	0.03
816.518	0.03
816.949	0.03
817.381	0.03
817.813	0.03
818.245	0.03
818.676	0.03
819.108	0.03
819.54	0.03
819.971	0.03
820.403	0.03
820.834	0.03
821.266	0.03
821.697	0.03
822.129	0.03
822.56	0.03
822.991	0.03
823.423	0.03
823.854	0.03
824.286	0.03
824.717	0.03
825.148	0.03
825.579	0.03
826.01	0.03
826.442	0.03
826.873	0.03
827.304	0.03
827.735	0.03
828.166	0.03
828.597	0.03
829.028	0.03
829.459	0.03
829.89	0.03
830.321	0.03
830.752	0.03
831.183	0.03
831.613	0.03
832.044	0.03
832.475	0.03
832.906	0.03
833.336	0.03
833.767	0.03
834.198	0.03
834.628	0.03
835.059	0.03
835.49	0.03
835.92	0.03
836.351	0.03
836.781	0.03
837.212	0.03
837.642	0.03
838.072	0.03
838.503	0.03
838.933	0.03
839.364	0.03
839.794	0.03
840.224	0.03
840.654	0.03
841.085	0.03
841.515	0.03
841.945	0.03
842.375	0.03
842.805	0.03
843.235	0.02
843.665	0.02
844.095	0.02
844.525	0.02
844.955	0.02
845.385	0.02
845.815	0.02
846.245	0.02
846.675	0.02
847.105	0.02
847.534	0.02
847.964	0.02
848.394	0.02
848.824	0.02
849.253	0.02
849.683	0.02
850.112	0.02
850.542	0.02
850.972	0.02
851.401	0.02
851.831	0.02
852.26	0.02
852.69	0.02
853.119	0.02
853.548	0.03
853.978	0.03
854.407	0.03
854.836	0.03
855.266	0.03
855.695	0.03
856.124	0.03
856.553	0.02
856.983	0.02
857.412	0.02
857.841	0.02
858.27	0.02
858.699	0.02
859.128	0.02
859.557	0.02
859.986	0.02
860.415	0.02
860.844	0.02
861.273	0.02
861.702	0.02
862.13	0.02
862.559	0.02
862.988	0.02
863.417	0.02
863.845	0.02
864.274	0.02
864.703	0.02
865.131	0.02
865.56	0.02
865.989	0.02
866.417	0.02
866.846	0.02
867.274	0.02
867.703	0.02
868.131	0.02
868.559	0.02
868.988	0.02
869.416	0.02
869.844	0.02
870.273	0.02
870.701	0.02
871.129	0.02
871.557	0.02
871.986	0.02
872.414	0.02
872.842	0.02
873.27	0.02
873.698	0.02
874.126	0.01
874.554	0.01
874.982	0.01
875.41	0.01
875.838	0.01
876.266	0.02
876.694	0.02
877.122	0.02
877.549	0.01
877.977	0.01
878.405	0.01
878.833	0.01
879.26	0.01
879.688	0.01
880.116	0.01
880.543	0.01
880.971	0.01
881.399	0.01
881.826	0.01
882.254	0.01
882.681	0.01
883.109	0.01
883.536	0.01
883.963	0.01
884.391	0.01
884.818	0.01
885.245	0.01
885.673	0.01
886.1	0.01
886.527	0.01
886.954	0.01
887.381	0.01
887.809	0.01
888.236	0.01
888.663	0.01
889.09	0.01
889.517	0.01
889.944	0.01
890.371	0.01
890.798	0.01
891.225	0.01
891.652	0.01
892.078	0.01
892.505	0.01
892.932	0.01
893.359	0.01
893.786	0.01
894.212	0.01
894.639	0.01
895.066	0.01
895.492	0.01
895.919	0.01
896.346	0.01
896.772	0.01
897.199	0.01
897.625	0.01
898.052	0.01
898.478	0.01
898.904	0.01
899.331	0.01
899.757	0.01
900.183	0.01
900.61	0
901.036	0
901.462	0
901.888	0
902.315	0.01
902.741	0.01
903.167	0.01
903.593	0.01
904.019	0.01
904.445	0.01
904.871	0.01
905.297	0.01
905.723	0.01
906.149	0.01
906.575	0.01
907.001	0.01
907.427	0.01
907.852	0.01
908.278	0.01
908.704	0.01
909.13	0.01
909.555	0.01
909.981	0.01
910.407	0.01
910.832	0.01
911.258	0.01
911.684	0.01
912.109	0.01
912.535	0.01
912.96	0.01
913.386	0.01
913.811	0.01
914.236	0.01
914.662	0.01
915.087	0.01
915.512	0.01
915.938	0.01
916.363	0.01
916.788	0.01
917.213	0.01
917.639	0.01
918.064	0.01
918.489	0.01
918.914	0.01
919.339	0.01
919.764	0.01
920.189	0.01
920.614	0.01
921.039	0.01
921.464	0.02
921.889	0.02
922.314	0.02
922.738	0.02
923.163	0.02
923.588	0.02
924.013	0.02
924.437	0.02
924.862	0.02
925.287	0.02
925.711	0.02
926.136	0.02
926.561	0.02
926.985	0.02
927.41	0.02
927.834	0.02
928.259	0.01
928.683	0.01
929.108	0.01
929.532	0.01
929.956	0.01
930.381	0.01
930.805	0.01
931.229	0.01
931.653	0.01
932.078	0.01
932.502	0.01
932.926	0.01
933.35	0.01
933.774	0.01
934.198	0.01
934.622	0.01
935.046	0.01
935.47	0.01
935.894	0.01
936.318	0.01
936.742	0.01
937.166	0.01
937.59	0.01
938.014	0.01
938.437	0.01
938.861	0.01
939.285	0.01
939.709	0.01
940.132	0.01
940.556	0.01
940.98	0.01
941.403	0.01
941.827	0.01
942.25	0.01
942.674	0.01
943.097	0.01
943.521	0.01
943.944	0.01
944.368	0.01
944.791	0.01
945.214	0.01
945.638	0.01
946.061	0.01
946.484	0.01
946.907	0.01
947.331	0.01
947.754	0.01
948.177	0.01
948.6	0.01
949.023	0.01
949.446	0.01
949.869	0.01
950.292	0.01
950.715	0.01
951.138	0.01
951.561	0.01
951.984	0.01
952.407	0.01
952.83	0.01
953.252	0.01
953.675	0.01
954.098	0.01
954.521	0.01
954.943	0.01
955.366	0.01
955.789	0.01
956.211	0.01
956.634	0.01
957.056	0.01
957.479	0.01
957.902	0.01
958.324	0.01
958.746	0.01
959.169	0.01
959.591	0.01
960.014	0.01
960.436	0.01
960.858	0.01
961.281	0.01
961.703	0.01
962.125	0.01
962.547	0.01
962.969	0.01
963.391	0.01
963.814	0.01
964.236	0.01
964.658	0.01
965.08	0.01
965.502	0.01
965.924	0.01
966.346	0.01
966.768	0.01
967.189	0.01
967.611	0.01
968.033	0.01
968.455	0.01
968.877	0.01
969.298	0.01
969.72	0.01
970.142	0.01
970.563	0.01
970.985	0.01
971.407	0.01
971.828	0.01
972.25	0.01
972.671	0.01
973.093	0.01
973.514	0.01
973.936	0.01
974.357	0.01
974.778	0.01
975.2	0.01
975.621	0.01
976.042	0.01
976.464	0.01
976.885	0.01
977.306	0.01
977.727	0
978.148	0.01
978.57	0.01
978.991	0.01
979.412	0.01
979.833	0.01
980.254	0.01
980.675	0.01
981.096	0.01
981.517	0.01
981.937	0.01
982.358	0.01
982.779	0.01
983.2	0.01
983.621	0.01
984.042	0
984.462	0
984.883	0
985.304	0
985.724	0
986.145	0
986.565	0
986.986	0
987.407	0
987.827	0
988.248	0
988.668	0
989.088	0
989.509	0
989.929	0
990.35	0
990.77	0.01
991.19	0.01
991.61	0.01
992.031	0.01
992.451	0.01
992.871	0.01
993.291	0.01
993.711	0.01
994.131	0.01
994.551	0.01
994.971	0.01
995.391	0.01
995.811	0.01
996.231	0.01
996.651	0.01
997.071	0.01
997.491	0.01
997.911	0.01
998.331	0.01
998.75	0.01
999.17	0.01
999.59	0.01
1000.009	0.01
1000.429	0.01
1000.849	0.01
1001.268	0.01
1001.688	0.01
1002.107	0.01
1002.527	0.01
1002.946	0
1003.366	0
1003.785	0
1004.205	0
1004.624	0
1005.044	0
1005.463	0
1005.882	0
1006.301	0
1006.721	0
1007.14	0
1007.559	0
1007.978	0
1008.397	0
1008.816	0
1009.235	0
1009.655	0
1010.074	0
1010.492	0
1010.911	-0
1011.33	-0
1011.749	-0
1012.168	-0
1012.587	-0
1013.006	-0
1013.425	-0
1013.843	-0
1014.262	-0
1014.681	-0
1015.099	-0
1015.518	-0
1015.937	-0
1016.355	-0
1016.774	-0
1017.192	-0
1017.611	-0
1018.029	-0
1018.448	-0
1018.866	-0
1019.285	-0
1019.703	-0
1020.121	-0
1020.54	-0
1020.958	-0
1021.376	-0
1021.794	-0
1022.213	-0
1022.631	-0
1023.049	-0
1023.467	-0
1023.885	-0
1024.303	-0
1024.721	-0
1025.139	-0
1025.557	-0
1025.975	-0
1026.393	-0
1026.811	-0
1027.229	-0
1027.647	-0
1028.065	-0
1028.482	-0
1028.9	-0
1029.318	-0
1029.735	-0
1030.153	-0
1030.571	-0
1030.988	-0
1031.406	-0
1031.823	-0
1032.241	-0
1032.659	0
1033.076	0
1033.493	0
1033.911	0
1034.328	0
1034.746	0
1035.163	0
1035.58	0
1035.997	0
1036.415	0
1036.832	0
1037.249	0
1037.666	-0
1038.083	-0
1038.501	-0
1038.918	-0
1039.335	-0
1039.752	-0
1040.169	-0
1040.586	-0
1041.003	-0
1041.419	-0
1041.836	-0
1042.253	-0
1042.67	-0
1043.087	-0
1043.504	-0
1043.92	-0.01
1044.337	-0.01
1044.754	-0.01
1045.17	-0.01
1045.587	-0
1046.004	-0
1046.42	-0
1046.837	-0
1047.253	-0
1047.67	-0
1048.086	-0
1048.503	-0
1048.919	-0
1049.335	-0
1049.752	-0
1050.168	-0
1050.584	-0
1051.001	-0
1051.417	-0
1051.833	-0
1052.249	0
1052.665	-0
1053.081	-0
1053.497	-0
1053.914	-0
1054.33	-0
1054.746	-0
1055.162	-0
1055.578	-0
1055.993	-0
1056.409	-0
1056.825	-0
1057.241	-0
1057.657	-0
1058.073	-0.01
1058.488	-0.01
1058.904	-0.01
1059.32	-0.01
1059.736	-0.01
1060.151	-0.01
1060.567	-0.01
1060.982	-0.01
1061.398	-0.01
1061.813	-0.01
1062.229	-0.01
1062.644	-0.01
1063.06	-0.01
1063.475	-0.01
1063.891	-0.01
1064.306	-0.01
1064.721	-0.01
1065.137	-0.01
1065.552	-0.01
1065.967	-0.01
1066.382	-0.01
1066.798	-0.01
1067.213	-0.01
1067.628	-0.01
1068.043	-0.01
1068.458	-0.01
1068.873	-0.01
1069.288	-0.01
1069.703	-0.01
1070.118	-0.01
1070.533	-0.01
1070.948	-0.01
1071.363	-0.01
1071.778	-0.01
1072.193	-0.01
1072.607	-0.01
1073.022	-0.01
1073.437	-0.01
1073.852	-0.01
1074.266	-0.01
1074.681	-0.01
1075.096	-0.01
1075.51	-0.01
1075.925	-0.01
1076.339	-0.01
1076.754	-0.01
1077.168	-0.01
1077.583	-0.01
1077.997	-0.01
1078.412	-0.01
1078.826	-0.01
1079.24	-0.01
1079.655	-0.01
1080.069	-0.01
1080.483	-0.01
1080.897	-0.01
1081.312	-0.01
1081.726	-0.01
1082.14	-0.01
1082.554	-0.01
1082.968	-0.01
1083.382	-0.01
1083.796	-0.01
1084.21	-0.01
1084.624	-0.01
1085.038	-0.01
1085.452	-0.01
1085.866	-0.01
1086.28	-0.01
1086.694	-0.01
1087.108	-0.01
1087.521	-0.01
1087.935	-0.02
1088.349	-0.02
1088.763	-0.02
1089.176	-0.02
1089.59	-0.02
1090.004	-0.02
1090.417	-0.02
1090.831	-0.02
1091.244	-0.02
1091.658	-0.02
1092.071	-0.02
1092.485	-0.02
1092.898	-0.03
1093.312	-0.03
1093.725	-0.03
1094.138	-0.03
1094.552	-0.03
1094.965	-0.03
1095.378	-0.03
1095.791	-0.03
1096.205	-0.03
1096.618	-0.03
1097.031	-0.04
1097.444	-0.04
1097.857	-0.04
1098.27	-0.04
1098.683	-0.04
1099.096	-0.04
1099.509	-0.04
1099.922	-0.04
1100.335	-0.04
1100.748	-0.04
1101.161	-0.04
1101.574	-0.04
1101.986	-0.04
1102.399	-0.04
1102.812	-0.04
1103.225	-0.04
1103.637	-0.05
1104.05	-0.05
1104.463	-0.05
1104.875	-0.05
1105.288	-0.05
1105.7	-0.05
1106.113	-0.05
1106.525	-0.05
1106.938	-0.05
1107.35	-0.05
1107.763	-0.05
1108.175	-0.05
1108.588	-0.06
1109	-0.06
1109.412	-0.06
1109.824	-0.06
1110.237	-0.06
1110.649	-0.06
1111.061	-0.05
