Data from 2024-02-06-100ns-20nr-25nacl-100h2o-7bp2-40to10hyt-dark-0_5cpm_Absorbance__88__00088.txt Node

Date: Tue Feb 06 10:55:59 CET 2024
User: Laser008
Spectrometer: MAYP115816
Trigger mode: 0
Integration Time (sec): 2.000000E-1
Scans to average: 10
Electric dark correction enabled: true
Nonlinearity correction enabled: true
Boxcar width: 5
XAxis mode: Wavelengths
Number of Pixels in Spectrum: 2068
>>>>>Begin Spectral Data<<<<<
198.914	-0.29
199.384	-0.26
199.855	-0.2
200.325	-0.16
200.796	-0.14
201.266	-0.12
201.737	-0.11
202.207	-0.1
202.677	-0.09
203.147	-0.09
203.618	-0.07
204.088	-0.06
204.558	-0.05
205.028	-0.05
205.498	-0.05
205.968	-0.05
206.439	-0.05
206.909	-0.05
207.379	-0.05
207.849	-0.05
208.319	-0.05
208.789	-0.05
209.258	-0.05
209.728	-0.05
210.198	-0.05
210.668	-0.05
211.138	-0.06
211.608	-0.05
212.077	-0.06
212.547	-0.06
213.017	-0.05
213.486	-0.05
213.956	-0.05
214.426	-0.05
214.895	-0.05
215.365	-0.05
215.834	-0.05
216.304	-0.05
216.773	-0.05
217.243	-0.04
217.712	-0.04
218.181	-0.04
218.651	-0.04
219.12	-0.04
219.589	-0.03
220.058	-0.03
220.528	-0.03
220.997	-0.03
221.466	-0.03
221.935	-0.03
222.404	-0.03
222.873	-0.02
223.342	-0.02
223.812	-0.02
224.281	-0.01
224.749	-0.01
225.218	-0
225.687	0
226.156	0.01
226.625	0.02
227.094	0.03
227.563	0.04
228.031	0.05
228.5	0.06
228.969	0.08
229.438	0.09
229.906	0.11
230.375	0.13
230.844	0.15
231.312	0.17
231.781	0.18
232.249	0.21
232.718	0.23
233.186	0.25
233.655	0.27
234.123	0.28
234.591	0.3
235.06	0.32
235.528	0.33
235.996	0.34
236.465	0.36
236.933	0.37
237.401	0.38
237.869	0.39
238.337	0.4
238.805	0.4
239.274	0.41
239.742	0.42
240.21	0.42
240.678	0.43
241.146	0.43
241.614	0.44
242.081	0.44
242.549	0.44
243.017	0.45
243.485	0.45
243.953	0.45
244.421	0.46
244.888	0.46
245.356	0.46
245.824	0.46
246.291	0.47
246.759	0.47
247.227	0.47
247.694	0.47
248.162	0.48
248.629	0.48
249.097	0.48
249.564	0.48
250.032	0.48
250.499	0.49
250.967	0.49
251.434	0.49
251.901	0.49
252.369	0.49
252.836	0.5
253.303	0.5
253.77	0.5
254.237	0.5
254.705	0.5
255.172	0.5
255.639	0.5
256.106	0.5
256.573	0.51
257.04	0.51
257.507	0.51
257.974	0.51
258.441	0.51
258.908	0.51
259.375	0.51
259.841	0.51
260.308	0.51
260.775	0.51
261.242	0.51
261.709	0.51
262.175	0.51
262.642	0.5
263.109	0.5
263.575	0.5
264.042	0.5
264.508	0.5
264.975	0.5
265.441	0.5
265.908	0.5
266.374	0.5
266.841	0.49
267.307	0.49
267.773	0.49
268.24	0.49
268.706	0.49
269.172	0.48
269.639	0.48
270.105	0.48
270.571	0.48
271.037	0.47
271.503	0.47
271.969	0.47
272.435	0.47
272.902	0.46
273.368	0.46
273.834	0.46
274.3	0.46
274.765	0.45
275.231	0.45
275.697	0.45
276.163	0.44
276.629	0.44
277.095	0.44
277.56	0.44
278.026	0.43
278.492	0.43
278.958	0.43
279.423	0.42
279.889	0.42
280.354	0.42
280.82	0.41
281.286	0.41
281.751	0.41
282.217	0.41
282.682	0.4
283.147	0.4
283.613	0.4
284.078	0.39
284.544	0.39
285.009	0.39
285.474	0.39
285.939	0.38
286.405	0.38
286.87	0.38
287.335	0.38
287.8	0.38
288.265	0.37
288.73	0.37
289.195	0.37
289.66	0.37
290.125	0.36
290.59	0.36
291.055	0.36
291.52	0.36
291.985	0.36
292.45	0.35
292.915	0.35
293.38	0.35
293.844	0.35
294.309	0.35
294.774	0.35
295.239	0.35
295.703	0.34
296.168	0.34
296.632	0.34
297.097	0.34
297.562	0.34
298.026	0.34
298.491	0.34
298.955	0.33
299.419	0.33
299.884	0.33
300.348	0.33
300.813	0.33
301.277	0.33
301.741	0.33
302.205	0.33
302.67	0.33
303.134	0.33
303.598	0.33
304.062	0.32
304.526	0.32
304.99	0.32
305.454	0.32
305.919	0.32
306.383	0.32
306.847	0.32
307.31	0.32
307.774	0.32
308.238	0.32
308.702	0.32
309.166	0.31
309.63	0.31
310.094	0.31
310.557	0.31
311.021	0.31
311.485	0.31
311.948	0.31
312.412	0.31
312.876	0.31
313.339	0.31
313.803	0.31
314.266	0.31
314.73	0.3
315.193	0.3
315.657	0.3
316.12	0.3
316.584	0.3
317.047	0.3
317.51	0.3
317.973	0.3
318.437	0.3
318.9	0.3
319.363	0.3
319.826	0.3
320.29	0.3
320.753	0.3
321.216	0.3
321.679	0.29
322.142	0.29
322.605	0.29
323.068	0.29
323.531	0.29
323.994	0.29
324.457	0.29
324.92	0.29
325.382	0.29
325.845	0.29
326.308	0.29
326.771	0.29
327.233	0.29
327.696	0.29
328.159	0.29
328.622	0.28
329.084	0.28
329.547	0.28
330.009	0.28
330.472	0.28
330.934	0.28
331.397	0.28
331.859	0.28
332.322	0.28
332.784	0.28
333.246	0.28
333.709	0.28
334.171	0.28
334.633	0.28
335.096	0.28
335.558	0.28
336.02	0.28
336.482	0.27
336.944	0.27
337.406	0.27
337.868	0.27
338.331	0.27
338.793	0.27
339.255	0.27
339.717	0.27
340.178	0.27
340.64	0.27
341.102	0.27
341.564	0.27
342.026	0.27
342.488	0.27
342.949	0.27
343.411	0.27
343.873	0.27
344.335	0.27
344.796	0.27
345.258	0.27
345.719	0.27
346.181	0.27
346.643	0.27
347.104	0.27
347.566	0.27
348.027	0.27
348.488	0.27
348.95	0.27
349.411	0.26
349.873	0.26
350.334	0.26
350.795	0.26
351.256	0.26
351.718	0.26
352.179	0.26
352.64	0.26
353.101	0.26
353.562	0.26
354.023	0.26
354.484	0.26
354.945	0.26
355.406	0.26
355.867	0.26
356.328	0.26
356.789	0.26
357.25	0.26
357.711	0.26
358.172	0.26
358.633	0.26
359.093	0.26
359.554	0.26
360.015	0.26
360.476	0.26
360.936	0.26
361.397	0.26
361.858	0.26
362.318	0.26
362.779	0.26
363.239	0.26
363.7	0.26
364.16	0.26
364.621	0.26
365.081	0.26
365.541	0.26
366.002	0.26
366.462	0.26
366.922	0.26
367.383	0.26
367.843	0.26
368.303	0.26
368.763	0.26
369.223	0.26
369.684	0.26
370.144	0.26
370.604	0.26
371.064	0.26
371.524	0.26
371.984	0.26
372.444	0.26
372.904	0.26
373.363	0.26
373.823	0.26
374.283	0.25
374.743	0.25
375.203	0.25
375.663	0.25
376.122	0.25
376.582	0.25
377.042	0.25
377.501	0.25
377.961	0.25
378.42	0.25
378.88	0.25
379.34	0.25
379.799	0.25
380.259	0.25
380.718	0.25
381.177	0.25
381.637	0.25
382.096	0.25
382.555	0.25
383.015	0.25
383.474	0.25
383.933	0.25
384.393	0.25
384.852	0.25
385.311	0.25
385.77	0.25
386.229	0.25
386.688	0.25
387.147	0.25
387.606	0.25
388.065	0.25
388.524	0.25
388.983	0.25
389.442	0.25
389.901	0.25
390.36	0.25
390.819	0.25
391.277	0.25
391.736	0.25
392.195	0.25
392.654	0.24
393.112	0.24
393.571	0.24
394.03	0.24
394.488	0.24
394.947	0.24
395.405	0.24
395.864	0.24
396.322	0.24
396.781	0.24
397.239	0.24
397.698	0.24
398.156	0.24
398.614	0.24
399.073	0.24
399.531	0.24
399.989	0.24
400.447	0.24
400.905	0.24
401.364	0.24
401.822	0.24
402.28	0.24
402.738	0.24
403.196	0.24
403.654	0.24
404.112	0.24
404.57	0.24
405.028	0.24
405.486	0.24
405.944	0.24
406.402	0.24
406.859	0.24
407.317	0.24
407.775	0.24
408.233	0.24
408.691	0.24
409.148	0.24
409.606	0.24
410.064	0.24
410.521	0.24
410.979	0.24
411.436	0.24
411.894	0.24
412.351	0.23
412.809	0.23
413.266	0.23
413.724	0.23
414.181	0.23
414.638	0.23
415.096	0.23
415.553	0.23
416.01	0.23
416.467	0.23
416.925	0.23
417.382	0.23
417.839	0.23
418.296	0.23
418.753	0.23
419.21	0.23
419.667	0.23
420.124	0.23
420.581	0.23
421.038	0.23
421.495	0.23
421.952	0.23
422.409	0.23
422.866	0.23
423.322	0.23
423.779	0.23
424.236	0.23
424.693	0.23
425.149	0.23
425.606	0.23
426.063	0.23
426.519	0.23
426.976	0.23
427.433	0.23
427.889	0.23
428.346	0.23
428.802	0.23
429.258	0.23
429.715	0.23
430.171	0.23
430.628	0.23
431.084	0.23
431.54	0.23
431.997	0.23
432.453	0.23
432.909	0.23
433.365	0.23
433.821	0.23
434.277	0.23
434.734	0.23
435.19	0.23
435.646	0.23
436.102	0.23
436.558	0.23
437.014	0.23
437.47	0.23
437.925	0.23
438.381	0.23
438.837	0.23
439.293	0.23
439.749	0.23
440.205	0.23
440.66	0.23
441.116	0.23
441.572	0.23
442.027	0.23
442.483	0.23
442.939	0.23
443.394	0.23
443.85	0.23
444.305	0.23
444.761	0.23
445.216	0.23
445.672	0.23
446.127	0.23
446.582	0.23
447.038	0.23
447.493	0.23
447.948	0.23
448.403	0.23
448.859	0.23
449.314	0.23
449.769	0.23
450.224	0.23
450.679	0.23
451.134	0.22
451.589	0.22
452.044	0.22
452.499	0.22
452.954	0.22
453.409	0.22
453.864	0.22
454.319	0.22
454.774	0.22
455.229	0.23
455.684	0.23
456.138	0.23
456.593	0.23
457.048	0.23
457.503	0.23
457.957	0.23
458.412	0.23
458.866	0.23
459.321	0.23
459.776	0.23
460.23	0.23
460.685	0.23
461.139	0.23
461.593	0.23
462.048	0.23
462.502	0.23
462.957	0.23
463.411	0.23
463.865	0.23
464.319	0.23
464.774	0.23
465.228	0.23
465.682	0.23
466.136	0.23
466.59	0.23
467.044	0.23
467.499	0.23
467.953	0.23
468.407	0.23
468.861	0.23
469.315	0.23
469.768	0.23
470.222	0.23
470.676	0.23
471.13	0.23
471.584	0.23
472.038	0.23
472.491	0.23
472.945	0.24
473.399	0.24
473.852	0.24
474.306	0.24
474.76	0.24
475.213	0.24
475.667	0.24
476.12	0.24
476.574	0.24
477.027	0.24
477.481	0.24
477.934	0.24
478.388	0.24
478.841	0.24
479.294	0.24
479.748	0.24
480.201	0.24
480.654	0.25
481.107	0.25
481.561	0.25
482.014	0.25
482.467	0.25
482.92	0.25
483.373	0.25
483.826	0.25
484.279	0.25
484.732	0.25
485.185	0.25
485.638	0.26
486.091	0.26
486.544	0.26
486.997	0.26
487.449	0.26
487.902	0.26
488.355	0.26
488.808	0.27
489.26	0.27
489.713	0.27
490.166	0.27
490.618	0.27
491.071	0.27
491.523	0.27
491.976	0.27
492.429	0.28
492.881	0.28
493.333	0.28
493.786	0.28
494.238	0.28
494.691	0.28
495.143	0.29
495.595	0.29
496.048	0.29
496.5	0.29
496.952	0.29
497.404	0.29
497.856	0.3
498.309	0.3
498.761	0.3
499.213	0.3
499.665	0.31
500.117	0.31
500.569	0.31
501.021	0.31
501.473	0.31
501.925	0.32
502.377	0.32
502.828	0.32
503.28	0.32
503.732	0.32
504.184	0.33
504.636	0.33
505.087	0.33
505.539	0.33
505.991	0.33
506.442	0.34
506.894	0.34
507.345	0.34
507.797	0.34
508.249	0.34
508.7	0.35
509.151	0.35
509.603	0.35
510.054	0.35
510.506	0.35
510.957	0.35
511.408	0.36
511.86	0.36
512.311	0.36
512.762	0.36
513.213	0.36
513.665	0.36
514.116	0.36
514.567	0.37
515.018	0.37
515.469	0.37
515.92	0.37
516.371	0.37
516.822	0.37
517.273	0.37
517.724	0.37
518.175	0.37
518.626	0.38
519.076	0.38
519.527	0.38
519.978	0.38
520.429	0.38
520.88	0.38
521.33	0.38
521.781	0.38
522.232	0.38
522.682	0.38
523.133	0.38
523.583	0.38
524.034	0.38
524.484	0.38
524.935	0.38
525.385	0.38
525.836	0.38
526.286	0.38
526.736	0.38
527.187	0.38
527.637	0.38
528.087	0.38
528.538	0.38
528.988	0.38
529.438	0.38
529.888	0.38
530.338	0.38
530.788	0.38
531.238	0.38
531.688	0.37
532.139	0.37
532.589	0.37
533.038	0.37
533.488	0.37
533.938	0.37
534.388	0.36
534.838	0.36
535.288	0.36
535.738	0.36
536.187	0.36
536.637	0.36
537.087	0.36
537.537	0.35
537.986	0.35
538.436	0.35
538.885	0.35
539.335	0.35
539.785	0.35
540.234	0.34
540.684	0.34
541.133	0.34
541.582	0.34
542.032	0.33
542.481	0.33
542.931	0.33
543.38	0.33
543.829	0.33
544.278	0.32
544.728	0.32
545.177	0.32
545.626	0.32
546.075	0.31
546.524	0.31
546.973	0.31
547.422	0.31
547.871	0.31
548.32	0.3
548.769	0.3
549.218	0.3
549.667	0.3
550.116	0.29
550.565	0.29
551.014	0.29
551.463	0.29
551.911	0.28
552.36	0.28
552.809	0.28
553.258	0.28
553.706	0.27
554.155	0.27
554.603	0.27
555.052	0.27
555.501	0.26
555.949	0.26
556.398	0.26
556.846	0.26
557.294	0.26
557.743	0.25
558.191	0.25
558.64	0.25
559.088	0.25
559.536	0.24
559.985	0.24
560.433	0.24
560.881	0.24
561.329	0.24
561.777	0.23
562.225	0.23
562.674	0.23
563.122	0.23
563.57	0.23
564.018	0.22
564.466	0.22
564.914	0.22
565.362	0.22
565.809	0.21
566.257	0.21
566.705	0.21
567.153	0.21
567.601	0.21
568.048	0.2
568.496	0.2
568.944	0.2
569.392	0.2
569.839	0.2
570.287	0.2
570.734	0.19
571.182	0.19
571.63	0.19
572.077	0.19
572.525	0.19
572.972	0.19
573.419	0.18
573.867	0.18
574.314	0.18
574.761	0.18
575.209	0.18
575.656	0.18
576.103	0.18
576.551	0.17
576.998	0.17
577.445	0.17
577.892	0.17
578.339	0.17
578.786	0.17
579.233	0.17
579.68	0.17
580.127	0.16
580.574	0.16
581.021	0.16
581.468	0.16
581.915	0.16
582.362	0.16
582.809	0.16
583.255	0.16
583.702	0.16
584.149	0.15
584.596	0.15
585.042	0.15
585.489	0.15
585.936	0.15
586.382	0.15
586.829	0.15
587.275	0.15
587.722	0.15
588.168	0.14
588.615	0.14
589.061	0.14
589.508	0.14
589.954	0.14
590.4	0.14
590.847	0.14
591.293	0.14
591.739	0.14
592.185	0.14
592.632	0.14
593.078	0.14
593.524	0.14
593.97	0.13
594.416	0.13
594.862	0.13
595.308	0.13
595.754	0.13
596.2	0.13
596.646	0.13
597.092	0.13
597.538	0.13
597.984	0.13
598.43	0.13
598.876	0.13
599.321	0.13
599.767	0.13
600.213	0.13
600.659	0.13
601.104	0.12
601.55	0.12
601.995	0.12
602.441	0.12
602.887	0.12
603.332	0.12
603.778	0.12
604.223	0.12
604.668	0.12
605.114	0.12
605.559	0.12
606.005	0.12
606.45	0.12
606.895	0.12
607.341	0.12
607.786	0.12
608.231	0.12
608.676	0.12
609.121	0.12
609.566	0.12
610.012	0.12
610.457	0.12
610.902	0.12
611.347	0.12
611.792	0.12
612.237	0.12
612.682	0.12
613.127	0.12
613.571	0.12
614.016	0.12
614.461	0.12
614.906	0.12
615.351	0.12
615.795	0.12
616.24	0.12
616.685	0.12
617.129	0.12
617.574	0.12
618.019	0.12
618.463	0.12
618.908	0.12
619.352	0.12
619.797	0.12
620.241	0.12
620.686	0.12
621.13	0.12
621.574	0.12
622.019	0.12
622.463	0.12
622.907	0.12
623.352	0.12
623.796	0.13
624.24	0.13
624.684	0.13
625.128	0.13
625.572	0.13
626.016	0.13
626.461	0.13
626.905	0.13
627.349	0.13
627.793	0.13
628.236	0.13
628.68	0.13
629.124	0.13
629.568	0.13
630.012	0.13
630.456	0.13
630.9	0.14
631.343	0.14
631.787	0.14
632.231	0.14
632.674	0.14
633.118	0.14
633.562	0.14
634.005	0.14
634.449	0.15
634.892	0.15
635.336	0.15
635.779	0.15
636.223	0.15
636.666	0.15
637.109	0.15
637.553	0.16
637.996	0.16
638.439	0.16
638.883	0.16
639.326	0.16
639.769	0.16
640.212	0.17
640.655	0.17
641.099	0.17
641.542	0.17
641.985	0.17
642.428	0.18
642.871	0.18
643.314	0.18
643.757	0.18
644.2	0.18
644.643	0.18
645.085	0.19
645.528	0.19
645.971	0.19
646.414	0.19
646.857	0.19
647.299	0.2
647.742	0.2
648.185	0.2
648.627	0.2
649.07	0.21
649.513	0.21
649.955	0.21
650.398	0.22
650.84	0.22
651.283	0.22
651.725	0.22
652.168	0.23
652.61	0.23
653.052	0.23
653.495	0.23
653.937	0.18
654.379	0.14
654.821	0.15
655.264	0.15
655.706	0.16
656.148	0.16
656.59	0.16
657.032	0.16
657.474	0.16
657.916	0.16
658.358	0.16
658.8	0.2
659.242	0.27
659.684	0.28
660.126	0.28
660.568	0.28
661.01	0.28
661.452	0.29
661.894	0.29
662.335	0.29
662.777	0.3
663.219	0.3
663.661	0.3
664.102	0.3
664.544	0.31
664.985	0.31
665.427	0.31
665.869	0.31
666.31	0.32
666.752	0.32
667.193	0.32
667.634	0.32
668.076	0.33
668.517	0.33
668.959	0.33
669.4	0.33
669.841	0.34
670.282	0.34
670.724	0.34
671.165	0.35
671.606	0.35
672.047	0.35
672.488	0.35
672.929	0.35
673.37	0.35
673.811	0.36
674.252	0.36
674.693	0.36
675.134	0.36
675.575	0.36
676.016	0.36
676.457	0.37
676.898	0.37
677.339	0.37
677.78	0.37
678.22	0.37
678.661	0.37
679.102	0.37
679.542	0.37
679.983	0.37
680.424	0.37
680.864	0.38
681.305	0.38
681.745	0.38
682.186	0.38
682.626	0.38
683.067	0.38
683.507	0.38
683.948	0.38
684.388	0.38
684.828	0.38
685.269	0.38
685.709	0.38
686.149	0.38
686.589	0.38
687.029	0.38
687.47	0.38
687.91	0.38
688.35	0.38
688.79	0.38
689.23	0.38
689.67	0.38
690.11	0.38
690.55	0.38
690.99	0.38
691.43	0.38
691.87	0.38
692.31	0.38
692.749	0.38
693.189	0.37
693.629	0.37
694.069	0.37
694.508	0.37
694.948	0.37
695.388	0.37
695.827	0.37
696.267	0.36
696.706	0.36
697.146	0.36
697.586	0.36
698.025	0.36
698.464	0.36
698.904	0.36
699.343	0.35
699.783	0.35
700.222	0.35
700.661	0.35
701.101	0.35
701.54	0.34
701.979	0.34
702.418	0.34
702.857	0.34
703.297	0.34
703.736	0.33
704.175	0.33
704.614	0.33
705.053	0.33
705.492	0.32
705.931	0.32
706.37	0.32
706.809	0.32
707.248	0.32
707.687	0.31
708.125	0.31
708.564	0.31
709.003	0.31
709.442	0.31
709.88	0.3
710.319	0.3
710.758	0.3
711.196	0.3
711.635	0.29
712.074	0.29
712.512	0.29
712.951	0.29
713.389	0.28
713.828	0.28
714.266	0.28
714.705	0.28
715.143	0.28
715.581	0.27
716.02	0.27
716.458	0.27
716.896	0.27
717.334	0.27
717.773	0.26
718.211	0.26
718.649	0.26
719.087	0.26
719.525	0.26
719.963	0.25
720.401	0.25
720.839	0.25
721.277	0.25
721.715	0.25
722.153	0.24
722.591	0.24
723.029	0.24
723.467	0.24
723.905	0.24
724.342	0.23
724.78	0.23
725.218	0.23
725.656	0.23
726.093	0.23
726.531	0.22
726.969	0.22
727.406	0.22
727.844	0.22
728.281	0.22
728.719	0.22
729.156	0.21
729.594	0.21
730.031	0.21
730.469	0.21
730.906	0.21
731.343	0.2
731.781	0.2
732.218	0.2
732.655	0.2
733.092	0.2
733.53	0.19
733.967	0.19
734.404	0.19
734.841	0.19
735.278	0.19
735.715	0.18
736.152	0.18
736.589	0.18
737.026	0.18
737.463	0.18
737.9	0.18
738.337	0.18
738.774	0.18
739.211	0.17
739.647	0.17
740.084	0.17
740.521	0.17
740.958	0.17
741.394	0.17
741.831	0.17
742.268	0.16
742.704	0.16
743.141	0.16
743.577	0.16
744.014	0.16
744.45	0.15
744.887	0.15
745.323	0.15
745.76	0.15
746.196	0.15
746.632	0.14
747.069	0.14
747.505	0.14
747.941	0.14
748.378	0.14
748.814	0.14
749.25	0.14
749.686	0.14
750.122	0.14
750.558	0.14
750.994	0.14
751.43	0.14
751.866	0.13
752.302	0.13
752.738	0.13
753.174	0.13
753.61	0.13
754.046	0.13
754.482	0.13
754.918	0.13
755.354	0.12
755.789	0.12
756.225	0.12
756.661	0.12
757.096	0.12
757.532	0.12
757.968	0.12
758.403	0.12
758.839	0.12
759.274	0.12
759.71	0.12
760.145	0.12
760.581	0.11
761.016	0.11
761.452	0.11
761.887	0.11
762.322	0.11
762.758	0.11
763.193	0.11
763.628	0.11
764.063	0.11
764.499	0.11
764.934	0.11
765.369	0.11
765.804	0.11
766.239	0.11
766.674	0.11
767.109	0.11
767.544	0.11
767.979	0.11
768.414	0.11
768.849	0.1
769.284	0.1
769.719	0.1
770.154	0.1
770.588	0.1
771.023	0.1
771.458	0.1
771.893	0.1
772.327	0.09
772.762	0.09
773.197	0.09
773.631	0.09
774.066	0.09
774.5	0.09
774.935	0.09
775.369	0.08
775.804	0.08
776.238	0.08
776.673	0.08
777.107	0.08
777.541	0.08
777.976	0.08
778.41	0.08
778.844	0.08
779.279	0.08
779.713	0.08
780.147	0.08
780.581	0.07
781.015	0.07
781.449	0.07
781.883	0.07
782.317	0.07
782.751	0.07
783.185	0.07
783.619	0.07
784.053	0.07
784.487	0.07
784.921	0.07
785.355	0.07
785.789	0.07
786.223	0.07
786.656	0.07
787.09	0.07
787.524	0.07
787.957	0.07
788.391	0.07
788.825	0.07
789.258	0.07
789.692	0.07
790.125	0.07
790.559	0.07
790.992	0.07
791.426	0.07
791.859	0.07
792.293	0.07
792.726	0.07
793.159	0.07
793.593	0.07
794.026	0.06
794.459	0.06
794.892	0.06
795.326	0.06
795.759	0.06
796.192	0.06
796.625	0.06
797.058	0.06
797.491	0.06
797.924	0.06
798.357	0.06
798.79	0.06
799.223	0.06
799.656	0.06
800.089	0.06
800.522	0.06
800.955	0.06
801.387	0.06
801.82	0.06
802.253	0.05
802.686	0.05
803.118	0.05
803.551	0.05
803.984	0.05
804.416	0.05
804.849	0.05
805.281	0.05
805.714	0.05
806.146	0.05
806.579	0.05
807.011	0.05
807.444	0.05
807.876	0.05
808.308	0.05
808.741	0.05
809.173	0.05
809.605	0.05
810.037	0.05
810.47	0.05
810.902	0.05
811.334	0.05
811.766	0.05
812.198	0.05
812.63	0.05
813.062	0.05
813.494	0.05
813.926	0.05
814.358	0.05
814.79	0.05
815.222	0.05
815.654	0.05
816.086	0.05
816.518	0.05
816.949	0.05
817.381	0.05
817.813	0.05
818.245	0.05
818.676	0.05
819.108	0.05
819.54	0.05
819.971	0.05
820.403	0.05
820.834	0.05
821.266	0.05
821.697	0.05
822.129	0.05
822.56	0.05
822.991	0.05
823.423	0.05
823.854	0.05
824.286	0.05
824.717	0.05
825.148	0.05
825.579	0.05
826.01	0.05
826.442	0.05
826.873	0.05
827.304	0.05
827.735	0.05
828.166	0.05
828.597	0.04
829.028	0.04
829.459	0.04
829.89	0.04
830.321	0.04
830.752	0.04
831.183	0.04
831.613	0.04
832.044	0.04
832.475	0.04
832.906	0.04
833.336	0.04
833.767	0.04
834.198	0.04
834.628	0.04
835.059	0.04
835.49	0.04
835.92	0.04
836.351	0.04
836.781	0.04
837.212	0.04
837.642	0.04
838.072	0.04
838.503	0.04
838.933	0.04
839.364	0.04
839.794	0.04
840.224	0.04
840.654	0.04
841.085	0.04
841.515	0.04
841.945	0.04
842.375	0.04
842.805	0.04
843.235	0.04
843.665	0.04
844.095	0.04
844.525	0.04
844.955	0.04
845.385	0.04
845.815	0.04
846.245	0.04
846.675	0.04
847.105	0.04
847.534	0.04
847.964	0.04
848.394	0.03
848.824	0.04
849.253	0.04
849.683	0.04
850.112	0.04
850.542	0.04
850.972	0.04
851.401	0.04
851.831	0.04
852.26	0.04
852.69	0.04
853.119	0.04
853.548	0.04
853.978	0.04
854.407	0.04
854.836	0.04
855.266	0.04
855.695	0.04
856.124	0.04
856.553	0.04
856.983	0.04
857.412	0.04
857.841	0.04
858.27	0.04
858.699	0.04
859.128	0.04
859.557	0.04
859.986	0.04
860.415	0.04
860.844	0.04
861.273	0.04
861.702	0.04
862.13	0.03
862.559	0.03
862.988	0.03
863.417	0.03
863.845	0.03
864.274	0.03
864.703	0.03
865.131	0.03
865.56	0.03
865.989	0.03
866.417	0.03
866.846	0.03
867.274	0.03
867.703	0.03
868.131	0.03
868.559	0.03
868.988	0.03
869.416	0.03
869.844	0.03
870.273	0.03
870.701	0.03
871.129	0.03
871.557	0.03
871.986	0.03
872.414	0.03
872.842	0.03
873.27	0.03
873.698	0.03
874.126	0.03
874.554	0.03
874.982	0.03
875.41	0.03
875.838	0.03
876.266	0.03
876.694	0.03
877.122	0.03
877.549	0.03
877.977	0.03
878.405	0.03
878.833	0.03
879.26	0.03
879.688	0.03
880.116	0.03
880.543	0.03
880.971	0.03
881.399	0.02
881.826	0.02
882.254	0.02
882.681	0.02
883.109	0.02
883.536	0.02
883.963	0.02
884.391	0.02
884.818	0.02
885.245	0.02
885.673	0.02
886.1	0.02
886.527	0.02
886.954	0.02
887.381	0.02
887.809	0.02
888.236	0.02
888.663	0.02
889.09	0.02
889.517	0.02
889.944	0.02
890.371	0.02
890.798	0.02
891.225	0.02
891.652	0.02
892.078	0.02
892.505	0.02
892.932	0.02
893.359	0.02
893.786	0.02
894.212	0.02
894.639	0.02
895.066	0.02
895.492	0.02
895.919	0.02
896.346	0.02
896.772	0.02
897.199	0.02
897.625	0.02
898.052	0.02
898.478	0.02
898.904	0.02
899.331	0.02
899.757	0.02
900.183	0.02
900.61	0.02
901.036	0.02
901.462	0.01
901.888	0.02
902.315	0.02
902.741	0.02
903.167	0.02
903.593	0.02
904.019	0.02
904.445	0.02
904.871	0.02
905.297	0.02
905.723	0.02
906.149	0.02
906.575	0.02
907.001	0.02
907.427	0.02
907.852	0.02
908.278	0.02
908.704	0.02
909.13	0.02
909.555	0.02
909.981	0.02
910.407	0.02
910.832	0.02
911.258	0.02
911.684	0.02
912.109	0.02
912.535	0.02
912.96	0.02
913.386	0.02
913.811	0.02
914.236	0.02
914.662	0.02
915.087	0.02
915.512	0.02
915.938	0.02
916.363	0.02
916.788	0.02
917.213	0.02
917.639	0.02
918.064	0.02
918.489	0.02
918.914	0.02
919.339	0.02
919.764	0.02
920.189	0.02
920.614	0.02
921.039	0.02
921.464	0.03
921.889	0.03
922.314	0.03
922.738	0.03
923.163	0.03
923.588	0.03
924.013	0.03
924.437	0.03
924.862	0.03
925.287	0.03
925.711	0.03
926.136	0.03
926.561	0.03
926.985	0.03
927.41	0.03
927.834	0.03
928.259	0.03
928.683	0.02
929.108	0.02
929.532	0.02
929.956	0.02
930.381	0.02
930.805	0.02
931.229	0.02
931.653	0.02
932.078	0.02
932.502	0.02
932.926	0.02
933.35	0.02
933.774	0.02
934.198	0.02
934.622	0.02
935.046	0.02
935.47	0.02
935.894	0.02
936.318	0.02
936.742	0.02
937.166	0.02
937.59	0.02
938.014	0.02
938.437	0.02
938.861	0.02
939.285	0.01
939.709	0.01
940.132	0.01
940.556	0.01
940.98	0.01
941.403	0.01
941.827	0.02
942.25	0.02
942.674	0.02
943.097	0.02
943.521	0.02
943.944	0.02
944.368	0.02
944.791	0.02
945.214	0.02
945.638	0.02
946.061	0.02
946.484	0.02
946.907	0.02
947.331	0.02
947.754	0.02
948.177	0.02
948.6	0.02
949.023	0.02
949.446	0.02
949.869	0.02
950.292	0.02
950.715	0.02
951.138	0.02
951.561	0.02
951.984	0.02
952.407	0.02
952.83	0.02
953.252	0.02
953.675	0.02
954.098	0.02
954.521	0.02
954.943	0.02
955.366	0.02
955.789	0.02
956.211	0.02
956.634	0.02
957.056	0.02
957.479	0.02
957.902	0.02
958.324	0.02
958.746	0.02
959.169	0.02
959.591	0.02
960.014	0.02
960.436	0.02
960.858	0.02
961.281	0.02
961.703	0.02
962.125	0.02
962.547	0.02
962.969	0.02
963.391	0.02
963.814	0.02
964.236	0.02
964.658	0.02
965.08	0.02
965.502	0.02
965.924	0.02
966.346	0.02
966.768	0.02
967.189	0.02
967.611	0.02
968.033	0.02
968.455	0.02
968.877	0.02
969.298	0.02
969.72	0.02
970.142	0.02
970.563	0.02
970.985	0.02
971.407	0.02
971.828	0.02
972.25	0.02
972.671	0.02
973.093	0.01
973.514	0.01
973.936	0.01
974.357	0.01
974.778	0.01
975.2	0.01
975.621	0.01
976.042	0.01
976.464	0.01
976.885	0.01
977.306	0.01
977.727	0.01
978.148	0.01
978.57	0.01
978.991	0.01
979.412	0.01
979.833	0.01
980.254	0.01
980.675	0.01
981.096	0.01
981.517	0.01
981.937	0.01
982.358	0.01
982.779	0.01
983.2	0.01
983.621	0.01
984.042	0.01
984.462	0.01
984.883	0.01
985.304	0.01
985.724	0.01
986.145	0.01
986.565	0.01
986.986	0.01
987.407	0.01
987.827	0.01
988.248	0.01
988.668	0.01
989.088	0.01
989.509	0.01
989.929	0.01
990.35	0.01
990.77	0.01
991.19	0.01
991.61	0.01
992.031	0.01
992.451	0.02
992.871	0.02
993.291	0.02
993.711	0.02
994.131	0.02
994.551	0.02
994.971	0.02
995.391	0.02
995.811	0.02
996.231	0.01
996.651	0.01
997.071	0.01
997.491	0.01
997.911	0.01
998.331	0.01
998.75	0.01
999.17	0.01
999.59	0.01
1000.009	0.01
1000.429	0.01
1000.849	0.01
1001.268	0.01
1001.688	0.01
1002.107	0.01
1002.527	0.01
1002.946	0.01
1003.366	0.01
1003.785	0.01
1004.205	0.01
1004.624	0.01
1005.044	0.01
1005.463	0.01
1005.882	0.01
1006.301	0.01
1006.721	0.01
1007.14	0.01
1007.559	0.01
1007.978	0.01
1008.397	0.01
1008.816	0.01
1009.235	0.01
1009.655	0.01
1010.074	0.01
1010.492	0.01
1010.911	0.01
1011.33	0.01
1011.749	0
1012.168	0
1012.587	0
1013.006	0
1013.425	0
1013.843	0
1014.262	0
1014.681	0
1015.099	0
1015.518	0
1015.937	0
1016.355	0
1016.774	0.01
1017.192	0.01
1017.611	0.01
1018.029	0.01
1018.448	0.01
1018.866	0.01
1019.285	0.01
1019.703	0.01
1020.121	0.01
1020.54	0.01
1020.958	0.01
1021.376	0.01
1021.794	0.01
1022.213	0.01
1022.631	0.01
1023.049	0.01
1023.467	0.01
1023.885	0.01
1024.303	0.01
1024.721	0.01
1025.139	0.01
1025.557	0.01
1025.975	0.01
1026.393	0.01
1026.811	0.01
1027.229	0.01
1027.647	0.01
1028.065	0.01
1028.482	0.01
1028.9	0.01
1029.318	0.01
1029.735	0.01
1030.153	0.01
1030.571	0.01
1030.988	0.01
1031.406	0.01
1031.823	0.01
1032.241	0.01
1032.659	0.01
1033.076	0.01
1033.493	0.01
1033.911	0.01
1034.328	0.01
1034.746	0.01
1035.163	0.01
1035.58	0.01
1035.997	0.01
1036.415	0.01
1036.832	0.01
1037.249	0.01
1037.666	0.01
1038.083	0.01
1038.501	0.01
1038.918	0.01
1039.335	0.01
1039.752	0.01
1040.169	0
1040.586	0
1041.003	0
1041.419	0
1041.836	0
1042.253	0
1042.67	0
1043.087	0
1043.504	0
1043.92	0
1044.337	0
1044.754	0
1045.17	0
1045.587	0
1046.004	0
1046.42	0
1046.837	0
1047.253	0
1047.67	0
1048.086	0
1048.503	0
1048.919	0
1049.335	0.01
1049.752	0.01
1050.168	0.01
1050.584	0.01
1051.001	0.01
1051.417	0.01
1051.833	0.01
1052.249	0.01
1052.665	0.01
1053.081	0.01
1053.497	0.01
1053.914	0.01
1054.33	0.01
1054.746	0
1055.162	0
1055.578	0
1055.993	0
1056.409	0
1056.825	0
1057.241	0
1057.657	0
1058.073	0
1058.488	0
1058.904	-0
1059.32	-0
1059.736	-0
1060.151	-0
1060.567	-0
1060.982	-0
1061.398	-0
1061.813	-0
1062.229	-0
1062.644	-0
1063.06	-0
1063.475	-0
1063.891	-0
1064.306	-0
1064.721	-0
1065.137	-0.01
1065.552	-0.01
1065.967	-0.01
1066.382	-0.01
1066.798	-0.01
1067.213	-0.01
1067.628	-0.01
1068.043	-0.01
1068.458	-0.01
1068.873	-0.01
1069.288	-0.01
1069.703	-0.01
1070.118	-0.01
1070.533	-0.01
1070.948	-0.01
1071.363	-0.01
1071.778	-0.01
1072.193	-0.01
1072.607	-0
1073.022	-0
1073.437	-0
1073.852	-0
1074.266	-0
1074.681	-0
1075.096	-0
1075.51	-0
1075.925	-0
1076.339	-0
1076.754	-0
1077.168	-0
1077.583	-0.01
1077.997	-0.01
1078.412	-0.01
1078.826	-0.01
1079.24	-0.01
1079.655	-0.01
1080.069	-0.01
1080.483	-0.01
1080.897	-0.01
1081.312	-0.01
1081.726	-0.01
1082.14	-0.01
1082.554	-0.01
1082.968	-0.01
1083.382	-0.01
1083.796	-0.01
1084.21	-0.01
1084.624	-0.01
1085.038	-0.01
1085.452	-0.01
1085.866	-0.01
1086.28	-0.01
1086.694	-0.01
1087.108	-0.01
1087.521	-0.01
1087.935	-0.01
1088.349	-0.01
1088.763	-0.01
1089.176	-0.01
1089.59	-0.01
1090.004	-0.01
1090.417	-0.01
1090.831	-0.02
1091.244	-0.02
1091.658	-0.02
1092.071	-0.02
1092.485	-0.02
1092.898	-0.02
1093.312	-0.02
1093.725	-0.02
1094.138	-0.02
1094.552	-0.02
1094.965	-0.03
1095.378	-0.03
1095.791	-0.03
1096.205	-0.03
1096.618	-0.03
1097.031	-0.03
1097.444	-0.03
1097.857	-0.03
1098.27	-0.03
1098.683	-0.03
1099.096	-0.03
1099.509	-0.03
1099.922	-0.03
1100.335	-0.03
1100.748	-0.03
1101.161	-0.04
1101.574	-0.04
1101.986	-0.04
1102.399	-0.04
1102.812	-0.04
1103.225	-0.04
1103.637	-0.04
1104.05	-0.04
1104.463	-0.04
1104.875	-0.04
1105.288	-0.04
1105.7	-0.05
1106.113	-0.05
1106.525	-0.05
1106.938	-0.05
1107.35	-0.05
1107.763	-0.05
1108.175	-0.05
1108.588	-0.06
1109	-0.06
1109.412	-0.06
1109.824	-0.06
1110.237	-0.06
1110.649	-0.06
1111.061	-0.06
